time (s)	coil I (A)	last det (V)	int current (uC)
2229.620740	1.423341	0.197510	705.977173
2229.621659	0.649054	0.197510	1302.457764
2229.622556	0.097646	0.197510	1390.046631
2229.623443	0.096896	0.197510	1475.993164
2229.624375	0.097115	0.197510	1566.504761
2229.625281	0.097090	0.197510	1654.468140
2229.626179	0.096969	0.197510	1741.546265
2229.627068	0.097137	0.197510	1827.901489
2229.628016	0.097112	0.197510	1919.963501
2229.628922	0.096984	0.197510	2007.830688
2229.629812	0.097009	0.197510	2094.168945
2229.630756	0.097064	0.197510	2185.797607
2230.611169	1.430376	0.232569	646.529968
2230.612094	0.711299	0.232569	1304.481445
2230.612989	0.098108	0.232569	1392.288086
2230.613924	0.097017	0.232569	1482.998657
2230.614834	0.097101	0.232569	1571.360352
2230.615736	0.097057	0.232569	1658.905640
2230.616635	0.096973	0.232569	1746.084106
2230.617565	0.097137	0.232569	1836.421875
2230.618469	0.097108	0.232569	1924.207642
2230.619371	0.097104	0.232569	2011.795898
2230.620264	0.097057	0.232569	2098.467773
2230.621213	0.097141	0.232569	2190.654785
2231.634398	1.421111	0.190831	633.815430
2231.635322	0.743478	0.190831	1320.788818
2231.636215	0.098181	0.190831	1408.464600
2231.637150	0.097006	0.190831	1499.164795
2231.638052	0.097075	0.190831	1586.726562
2231.638965	0.096998	0.190831	1675.286011
2231.639862	0.097057	0.190831	1762.346069
2231.640791	0.097101	0.190831	1852.552734
2231.641692	0.097035	0.190831	1939.981201
2231.642601	0.097068	0.190831	2028.215942
2231.643489	0.097061	0.190831	2114.405762
2231.644432	0.097090	0.190831	2205.961426
2232.624610	1.427571	0.228826	643.834412
2232.625543	0.701060	0.228826	1297.922974
2232.626433	0.098027	0.228826	1385.167358
2232.627369	0.097079	0.228826	1476.033203
2232.628268	0.097039	0.228826	1563.270874
2232.629167	0.097006	0.228826	1650.478882
2232.630057	0.097006	0.228826	1736.813843
2232.631009	0.097130	0.228826	1829.281738
2232.631922	0.097075	0.228826	1917.911377
2232.632827	0.097039	0.228826	2005.731323
2232.633753	0.097141	0.228826	2095.684082
2232.634652	0.097104	0.228826	2182.980957
2233.647053	1.403661	0.180317	616.207153
2233.648016	0.696215	0.180317	1286.661865
2233.648930	0.097657	0.180317	1375.920776
2233.649852	0.096929	0.180317	1465.289062
2233.650737	0.097028	0.180317	1551.158447
2233.651680	0.097057	0.180317	1642.683105
2233.652586	0.097053	0.180317	1730.613281
2233.653504	0.097028	0.180317	1819.684570
2233.654394	0.097006	0.180317	1906.019531
2233.655354	0.096980	0.180317	1999.120361
2233.656255	0.097013	0.180317	2086.529053
2233.657147	0.097006	0.180317	2173.058105
2234.638802	1.398296	0.226337	615.250183
2234.639720	0.738259	0.226337	1292.972168
2234.640668	0.098317	0.226337	1386.176392
2234.641581	0.097006	0.226337	1474.742554
2234.642486	0.097042	0.226337	1562.565796
2234.643376	0.097050	0.226337	1648.939941
2234.644324	0.097061	0.226337	1740.953369
2234.645231	0.097020	0.226337	1828.950684
2234.646126	0.097006	0.226337	1915.770752
2234.647016	0.097050	0.226337	2002.144897
2234.647952	0.097108	0.226337	2093.038086
2234.648847	0.097006	0.226337	2179.858154
2235.657446	1.426926	0.185780	649.251465
2235.658373	0.710907	0.185780	1308.262207
2235.659265	0.098097	0.185780	1395.764648
2235.660195	0.097035	0.185780	1486.007080
2235.661100	0.097075	0.185780	1573.860107
2235.662006	0.097101	0.185780	1661.833496
2235.662894	0.097046	0.185780	1748.010254
2235.663832	0.097141	0.185780	1839.128662
2235.664741	0.097185	0.185780	1927.469849
2235.665647	0.097079	0.185780	2015.423340
2235.666537	0.097108	0.185780	2101.849609
2235.667485	0.097233	0.185780	2194.026123
2236.654559	1.428362	0.229966	649.904602
2236.655468	0.732784	0.229966	1316.005615
2236.656353	0.098258	0.229966	1402.963989
2236.657289	0.097068	0.229966	1493.819580
2236.658199	0.096991	0.229966	1582.081299
2236.659091	0.097017	0.229966	1668.620117
2236.660011	0.097115	0.229966	1757.966309
2236.660930	0.097104	0.229966	1847.205322
2236.661832	0.097017	0.229966	1934.714355
2236.662724	0.097035	0.229966	2021.269531
2236.663671	0.097053	0.229966	2113.178955
2236.664570	0.097072	0.229966	2200.446289
2237.665742	1.396564	0.198529	610.298340
2237.666699	0.714148	0.198529	1293.738037
2237.667600	0.097745	0.198529	1381.806641
2237.668505	0.096984	0.198529	1469.576782
2237.669396	0.097072	0.198529	1556.067505
2237.670335	0.097068	0.198529	1647.214233
2237.671241	0.097061	0.198529	1735.151123
2237.672148	0.097013	0.198529	1823.141846
2237.673032	0.097009	0.198529	1908.898071
2237.673981	0.097137	0.198529	2001.081543
2237.674880	0.097006	0.198529	2088.289551
2237.675767	0.097053	0.198529	2174.375732
2238.670312	1.445823	0.226357	663.632629
2238.671235	0.706721	0.226357	1315.936279
2238.672128	0.098009	0.226357	1403.458374
2238.673043	0.096984	0.226357	1492.198364
2238.673953	0.097086	0.226357	1580.546753
2238.674853	0.097050	0.226357	1667.891357
2238.675753	0.097119	0.226357	1755.298584
2238.676679	0.097031	0.226357	1845.149536
2238.677583	0.097079	0.226357	1932.908813
2238.678486	0.097017	0.226357	2020.514771
2238.679369	0.097024	0.226357	2106.187012
2238.680315	0.097163	0.226357	2198.103271
2239.675086	1.394930	0.207033	609.584595
2239.675983	0.782849	0.207033	1311.800293
2239.676920	0.098097	0.207033	1403.717163
2239.677833	0.097061	0.207033	1492.333496
2239.678731	0.097101	0.207033	1579.530029
2239.679654	0.097148	0.207033	1669.197998
2239.680573	0.097178	0.207033	1758.504395
2239.681486	0.097039	0.207033	1847.100586
2239.682377	0.097083	0.207033	1933.601074
2239.683320	0.097174	0.207033	2025.236206
2239.684216	0.097101	0.207033	2112.238525
2239.685123	0.097115	0.207033	2200.322266
2240.683485	1.421755	0.228379	636.946411
2240.684407	0.725977	0.228379	1306.296753
2240.685303	0.098097	0.228379	1394.191650
2240.686225	0.097046	0.228379	1483.667969
2240.687141	0.097101	0.228379	1572.612305
2240.688050	0.097090	0.228379	1660.866943
2240.688946	0.097068	0.228379	1747.839722
2240.689895	0.097152	0.228379	1840.037109
2240.690797	0.097086	0.228379	1927.608887
2240.691696	0.097064	0.228379	2014.869629
2240.692582	0.097137	0.228379	2100.933350
2240.693513	0.097167	0.228379	2191.395508
2241.687008	1.425846	0.221922	643.056519
2241.687932	0.703583	0.221922	1293.166992
2241.688820	0.098097	0.221922	1380.277100
2241.689759	0.097017	0.221922	1471.375732
2241.690658	0.097075	0.221922	1558.646362
2241.691559	0.097017	0.221922	1646.058350
2241.692450	0.096958	0.221922	1732.447998
2241.693401	0.097163	0.221922	1824.850098
2241.694308	0.096973	0.221922	1912.804321
2241.695206	0.097020	0.221922	1999.928467
2241.696131	0.097101	0.221922	2089.746826
2241.697040	0.097083	0.221922	2177.994873
2242.694861	1.403643	0.228738	617.602722
2242.695756	0.771749	0.228738	1308.318359
2242.696719	0.097815	0.228738	1402.514160
2242.697631	0.097086	0.228738	1491.056763
2242.698527	0.097104	0.228738	1578.062378
2242.699464	0.097159	0.228738	1669.100708
2242.700364	0.097145	0.228738	1756.531006
2242.701260	0.097020	0.228738	1843.461182
2242.702148	0.097108	0.228738	1929.693237
2242.703101	0.097101	0.228738	2022.230347
2242.704002	0.097137	0.228738	2109.751221
2242.704903	0.097134	0.228738	2197.268799
2243.705029	1.387745	0.218365	599.505981
2243.705969	0.764890	0.218365	1318.502686
2243.706888	0.097885	0.218365	1408.458496
2243.707784	0.096969	0.218365	1495.342773
2243.708673	0.097072	0.218365	1581.639404
2243.709627	0.097167	0.218365	1674.336426
2243.710534	0.097159	0.218365	1762.459961
2243.711436	0.097072	0.218365	1850.018433
2243.712322	0.096998	0.218365	1935.958862
2243.713259	0.097134	0.218365	2026.973267
2243.714165	0.097068	0.218365	2114.916748
2243.715062	0.097024	0.218365	2201.947266
2244.704716	1.401204	0.224774	617.930786
2244.705609	0.772892	0.224774	1308.123291
2244.706575	0.097910	0.224774	1402.704468
2244.707475	0.096951	0.224774	1489.960083
2244.708376	0.097042	0.224774	1577.395142
2244.709312	0.097104	0.224774	1668.284912
2244.710220	0.097134	0.224774	1756.482422
2244.711123	0.097031	0.224774	1844.101685
2244.712010	0.097035	0.224774	1930.171631
2244.712954	0.097006	0.224774	2021.744873
2244.713853	0.097064	0.224774	2109.005615
2244.714749	0.097028	0.224774	2195.942383
2245.721549	1.401357	0.216737	613.794556
2245.722497	0.744294	0.216737	1319.385742
2245.723410	0.097819	0.216737	1408.694092
2245.724313	0.096976	0.216737	1496.263672
2245.725202	0.097094	0.216737	1582.579834
2245.726146	0.097141	0.216737	1674.281006
2245.727049	0.097119	0.216737	1761.979614
2245.727944	0.097090	0.216737	1848.875000
2245.728829	0.097108	0.216737	1934.815674
2245.729772	0.097163	0.216737	2026.440430
2245.730683	0.097123	0.216737	2114.919189
2245.731580	0.097075	0.216737	2201.995605
2246.712322	1.427058	0.228017	706.393738
2246.713250	0.634537	0.228017	1295.244385
2246.714145	0.097650	0.228017	1382.641235
2246.715032	0.097017	0.228017	1468.694946
2246.715966	0.097152	0.228017	1559.435059
2246.716868	0.097050	0.228017	1646.973755
2246.717765	0.097090	0.228017	1734.063354
2246.718650	0.097050	0.228017	1819.952271
2246.719598	0.097039	0.228017	1911.944824
2246.720506	0.097112	0.228017	2000.122314
2246.721402	0.097031	0.228017	2087.062256
2246.722334	0.097156	0.228017	2177.611328
2247.739615	1.418522	0.215549	632.660706
2247.740544	0.720751	0.215549	1302.238159
2247.741434	0.098053	0.215549	1389.505371
2247.742366	0.097035	0.215549	1479.941895
2247.743274	0.097046	0.215549	1568.059570
2247.744182	0.096965	0.215549	1656.104126
2247.745070	0.097013	0.215549	1742.251587
2247.746019	0.097064	0.215549	1834.365479
2247.746920	0.097028	0.215549	1921.787354
2247.747824	0.097068	0.215549	2009.536743
2247.748716	0.097090	0.215549	2096.140869
2247.749652	0.097050	0.215549	2186.979248
2248.721610	1.392341	0.249198	607.060791
2248.722581	0.658235	0.249198	1246.206787
2248.723483	0.097639	0.249198	1334.277344
2248.724389	0.097031	0.249198	1422.187622
2248.725281	0.097057	0.249198	1508.762329
2248.726232	0.097145	0.249198	1601.146973
2248.727136	0.097130	0.249198	1688.952637
2248.728030	0.097031	0.249198	1775.698608
2248.728965	0.097101	0.249198	1866.487915
2248.729867	0.097079	0.249198	1954.053101
2248.730769	0.096958	0.249198	2041.509277
2248.731657	0.097072	0.249198	2127.708740
2249.752820	1.412739	0.213761	679.527527
2249.753770	0.607727	0.213761	1256.868164
2249.754664	0.097518	0.213761	1344.049561
2249.755553	0.097020	0.213761	1430.300537
2249.756493	0.097148	0.213761	1521.620117
2249.757402	0.097079	0.213761	1609.864746
2249.758295	0.097086	0.213761	1696.562744
2249.759228	0.097083	0.213761	1787.140747
2249.760139	0.097086	0.213761	1875.586304
2249.761036	0.097009	0.213761	1962.603638
2249.761924	0.097072	0.213761	2048.803223
2249.762871	0.097130	0.213761	2140.785400
2250.737388	1.427011	0.253480	670.694946
2250.738296	0.708289	0.253480	1313.820923
2250.739261	0.098145	0.253480	1408.530396
2250.740169	0.096976	0.253480	1496.584839
2250.741068	0.097075	0.253480	1583.855469
2250.741957	0.097079	0.253480	1670.158569
2250.742890	0.097145	0.253480	1760.794678
2250.743799	0.097042	0.253480	1849.006104
2250.744694	0.097042	0.253480	1935.858887
2250.745614	0.097042	0.253480	2025.137695
2250.746533	0.097042	0.253480	2114.319580
2250.747432	0.097006	0.253480	2201.527588
2251.761918	1.436261	0.215517	709.512878
2251.762840	0.632834	0.215517	1292.986328
2251.763737	0.097636	0.215517	1380.565430
2251.764625	0.096995	0.215517	1466.696655
2251.765574	0.097141	0.215517	1558.883545
2251.766480	0.097079	0.215517	1646.837036
2251.767382	0.097028	0.215517	1734.355957
2251.768272	0.096991	0.215517	1820.677979
2251.769231	0.097159	0.215517	1913.853882
2251.770144	0.096980	0.215517	2002.396606
2251.771047	0.097017	0.215517	2090.002686
2251.771972	0.097119	0.215517	2179.837891
2252.755194	1.434075	0.249681	695.526245
2252.756122	0.630297	0.249681	1280.441528
2252.757023	0.097676	0.249681	1368.447388
2252.757910	0.097002	0.249681	1454.488159
2252.758866	0.097035	0.249681	1547.253540
2252.759775	0.097075	0.249681	1635.494873
2252.760671	0.097072	0.249681	1722.470947
2252.761577	0.096973	0.249681	1810.328125
2252.762508	0.097145	0.249681	1900.769897
2252.763418	0.097013	0.249681	1989.051636
2252.764317	0.097061	0.249681	2076.309082
2252.765240	0.097094	0.249681	2165.926270
2253.770951	1.395106	0.220419	606.871216
2253.771901	0.713335	0.220419	1284.539429
2253.772812	0.097899	0.220419	1373.725586
2253.773714	0.097002	0.220419	1461.221313
2253.774602	0.096995	0.220419	1547.352539
2253.775565	0.097170	0.220419	1640.927612
2253.776469	0.097039	0.220419	1728.650513
2253.777365	0.097042	0.220419	1815.600342
2253.778296	0.097112	0.220419	1906.011475
2253.779196	0.097152	0.220419	1993.448364
2253.780101	0.097013	0.220419	2081.245117
2253.780988	0.097028	0.220419	2167.308594
2254.775520	1.430768	0.250201	648.137817
2254.776446	0.712354	0.250201	1307.777100
2254.777339	0.098086	0.250201	1395.367798
2254.778271	0.097057	0.250201	1485.824829
2254.779177	0.097115	0.250201	1573.811401
2254.780078	0.097061	0.250201	1661.262939
2254.780966	0.097072	0.250201	1747.462402
2254.781914	0.097101	0.250201	1839.514038
2254.782822	0.097134	0.250201	1927.711548
2254.783724	0.097068	0.250201	2015.266724
2254.784611	0.097053	0.250201	2101.353027
2254.785557	0.097192	0.250201	2193.297119
2255.784132	1.391078	0.216355	603.727783
2255.785026	0.798596	0.216355	1317.672852
2255.785996	0.097961	0.216355	1412.695435
2255.786903	0.096980	0.216355	1500.656250
2255.787821	0.097108	0.216355	1589.801514
2255.788708	0.097079	0.216355	1675.910400
2255.789644	0.097057	0.216355	1766.755615
2255.790534	0.097039	0.216355	1853.119995
2255.791421	0.096965	0.216355	1939.128296
2255.792359	0.097134	0.216355	2030.239746
2255.793268	0.097057	0.216355	2118.464355
2255.794156	0.097061	0.216355	2204.654053
2256.792535	1.427838	0.236086	646.810730
2256.793445	0.732609	0.236086	1313.484619
2256.794334	0.098254	0.236086	1400.832764
2256.795288	0.097086	0.236086	1493.453003
2256.796191	0.097061	0.236086	1581.098633
2256.797083	0.097006	0.236086	1667.627686
2256.798026	0.097097	0.236086	1759.190308
2256.798923	0.097046	0.236086	1846.240479
2256.799813	0.096940	0.236086	1932.516846
2256.800699	0.097020	0.236086	2018.476807
2256.801636	0.097130	0.236086	2109.487793
2256.802539	0.097017	0.236086	2197.093750
2257.796555	1.404111	0.218405	620.617187
2257.797447	0.784102	0.218405	1320.035767
2257.798433	0.097646	0.218405	1416.315186
2257.799338	0.096998	0.218405	1504.098633
2257.800230	0.097083	0.218405	1590.696289
2257.801152	0.097123	0.218405	1680.243530
2257.802061	0.097134	0.218405	1768.538086
2257.802965	0.097046	0.218405	1856.267578
2257.803865	0.097068	0.218405	1943.628662
2257.804792	0.097137	0.218405	2033.675049
2257.805696	0.097152	0.218405	2121.500488
2257.806594	0.097090	0.218405	2208.687256
2258.806731	1.395993	0.238051	608.652710
2258.807652	0.766523	0.238051	1314.620850
2258.808586	0.097998	0.238051	1406.151001
2258.809493	0.097050	0.238051	1494.174927
2258.810384	0.097013	0.238051	1580.613403
2258.811316	0.097119	0.238051	1671.128418
2258.812222	0.097112	0.238051	1759.111694
2258.813124	0.097046	0.238051	1846.647095
2258.814013	0.097086	0.238051	1932.956665
2258.814948	0.097200	0.238051	2023.838379
2258.815855	0.097006	0.238051	2111.822510
2258.816750	0.097079	0.238051	2198.708008
2259.808986	1.421495	0.229688	635.408386
2259.809892	0.743914	0.229688	1309.394043
2259.810780	0.098503	0.229688	1396.865112
2259.811735	0.097101	0.229688	1489.596436
2259.812648	0.097119	0.229688	1578.266235
2259.813536	0.097086	0.229688	1664.478760
2259.814458	0.097090	0.229688	1753.995605
2259.815366	0.097148	0.229688	1842.206421
2259.816266	0.097053	0.229688	1929.554321
2259.817183	0.096987	0.229688	2018.491699
2259.818080	0.096995	0.229688	2105.495850
2259.819007	0.097053	0.229688	2195.464111
2260.818417	1.460116	0.238696	693.555054
2260.819349	0.648633	0.238696	1298.080811
2260.820260	0.097632	0.238696	1387.023437
2260.821150	0.096947	0.238696	1473.306274
2260.822096	0.097050	0.238696	1565.115112
2260.822997	0.097028	0.238696	1652.536987
2260.823884	0.097042	0.238696	1738.613403
2260.824826	0.097108	0.238696	1830.089233
2260.825730	0.097006	0.238696	1917.782349
2260.826632	0.097094	0.238696	2005.360718
2260.827519	0.097006	0.238696	2091.404785
2260.828482	0.097137	0.238696	2184.948242
2261.822674	1.409700	0.233064	625.906677
2261.823569	0.782252	0.233064	1326.022461
2261.824523	0.098075	0.233064	1419.585937
2261.825426	0.097013	0.233064	1507.188599
2261.826326	0.097031	0.233064	1594.516724
2261.827214	0.097024	0.233064	1680.673950
2261.828152	0.097094	0.233064	1771.747681
2261.829058	0.097068	0.233064	1859.691162
2261.829958	0.097079	0.233064	1947.062134
2261.830894	0.097167	0.233064	2038.010254
2261.831798	0.097104	0.233064	2125.792725
2261.832698	0.097050	0.233064	2213.137207
2262.829260	1.392931	0.241266	608.710815
2262.830155	0.791363	0.241266	1316.981201
2262.831096	0.098115	0.241266	1409.307617
2262.832005	0.097031	0.241266	1497.509033
2262.832911	0.097134	0.241266	1585.512207
2262.833797	0.097152	0.241266	1671.588989
2262.834739	0.097163	0.241266	1763.116577
2262.835650	0.097094	0.241266	1851.568726
2262.836546	0.097061	0.241266	1938.534912
2262.837486	0.097126	0.241266	2029.833740
2262.838378	0.097086	0.241266	2116.434570
2262.839282	0.097042	0.241266	2204.160645
2263.837136	1.406323	0.234313	617.375916
2263.838093	0.667170	0.234313	1255.857910
2263.838997	0.097808	0.234313	1344.276001
2263.839893	0.097061	0.234313	1431.242187
2263.840834	0.097104	0.234313	1522.617554
2263.841742	0.097134	0.234313	1610.815063
2263.842639	0.097097	0.234313	1697.911255
2263.843533	0.097075	0.234313	1784.696533
2263.844469	0.097134	0.234313	1875.613770
2263.845380	0.097020	0.234313	1963.999268
2263.846286	0.096987	0.234313	2051.869873
2263.847214	0.097042	0.234313	2141.925049
2264.840391	1.393986	0.245375	606.383728
2264.841324	0.767021	0.245375	1322.014771
2264.842250	0.097822	0.245375	1412.598145
2264.843149	0.096987	0.245375	1499.789673
2264.844037	0.097039	0.245375	1585.959961
2264.844977	0.097050	0.245375	1677.186523
2264.845875	0.096998	0.245375	1764.291016
2264.846789	0.097002	0.245375	1852.950806
2264.847684	0.097079	0.245375	1939.836426
2264.848639	0.097002	0.245375	2032.473267
2264.849542	0.096987	0.245375	2120.052734
2264.850432	0.096980	0.245375	2206.364990
2265.848547	1.427208	0.232359	647.952576
2265.849450	0.747114	0.232359	1322.596680
2265.850340	0.098511	0.232359	1410.271240
2265.851298	0.097159	0.232359	1503.349976
2265.852195	0.097035	0.232359	1590.390259
2265.853097	0.097046	0.232359	1677.925659
2265.854043	0.097137	0.232359	1769.817627
2265.854950	0.097200	0.232359	1857.977783
2265.855852	0.097079	0.232359	1945.542969
2265.856742	0.097079	0.232359	2031.943115
2265.857686	0.097156	0.232359	2123.658203
2265.858587	0.097104	0.232359	2211.149414
2266.853063	1.391191	0.242438	607.950623
2266.854028	0.660696	0.242438	1245.521973
2266.854936	0.097636	0.242438	1334.175049
2266.855843	0.096965	0.242438	1422.122559
2266.856731	0.097064	0.242438	1508.315552
2266.857666	0.097086	0.242438	1599.091064
2266.858577	0.097017	0.242438	1687.473145
2266.859466	0.097017	0.242438	1773.720947
2266.860415	0.097057	0.242438	1865.827881
2266.861322	0.097057	0.242438	1953.858521
2266.862226	0.096987	0.242438	2041.535034
2266.863116	0.097020	0.242438	2127.883057
2267.861718	1.412750	0.235179	632.912109
2267.862617	0.762480	0.235179	1318.382080
2267.863559	0.098522	0.235179	1411.189575
2267.864472	0.097028	0.235179	1499.775757
2267.865369	0.097009	0.235179	1586.793091
2267.866263	0.097068	0.235179	1673.571777
2267.867208	0.097053	0.235179	1765.287109
2267.868116	0.097097	0.235179	1853.451294
2267.869011	0.097017	0.235179	1940.281128
2267.869897	0.097020	0.235179	2026.241089
2267.870847	0.097068	0.235179	2118.455566
2267.871754	0.097042	0.235179	2206.472900
2268.866506	1.409517	0.239949	620.187317
2268.867495	0.604416	0.239949	1217.955200
2268.868397	0.097463	0.239949	1305.867187
2268.869286	0.096987	0.239949	1392.088867
2268.870223	0.097123	0.239949	1483.092896
2268.871121	0.097112	0.239949	1570.299316
2268.872017	0.097002	0.239949	1657.213013
2268.872905	0.097039	0.239949	1743.383301
2268.873850	0.097064	0.239949	1835.109009
2268.874756	0.097031	0.239949	1923.019287
2268.875656	0.096965	0.239949	2010.288086
2268.876544	0.097013	0.239949	2096.435547
2269.873613	1.396523	0.241814	614.470276
2269.874597	0.627909	0.241814	1232.332764
2269.875494	0.097522	0.241814	1319.809937
2269.876384	0.096943	0.241814	1406.089478
2269.877313	0.097057	0.241814	1496.255371
2269.878228	0.097009	0.241814	1585.018799
2269.879129	0.097028	0.241814	1672.440674
2269.880020	0.096965	0.241814	1758.836792
2269.880978	0.096991	0.241814	1851.754150
2269.881879	0.096976	0.241814	1939.129761
2269.882770	0.096976	0.241814	2025.535645
2269.883689	0.097031	0.241814	2114.707275
2270.879173	1.394443	0.248372	605.188416
2270.880129	0.700239	0.248372	1274.617187
2270.881045	0.097734	0.248372	1364.141846
2270.881948	0.096932	0.248372	1451.671753
2270.882838	0.097039	0.248372	1538.036133
2270.883781	0.097097	0.248372	1629.598755
2270.884688	0.097035	0.248372	1717.609375
2270.885578	0.096991	0.248372	1803.931396
2270.886503	0.097031	0.248372	1893.685303
2270.887417	0.097083	0.248372	1982.418701
2270.888330	0.097017	0.248372	2070.994873
2270.889224	0.097042	0.248372	2157.750732
2271.885515	1.397461	0.241733	610.690430
2271.886460	0.758639	0.241733	1327.604248
2271.887373	0.097771	0.241733	1416.869141
2271.888280	0.096903	0.241733	1504.760254
2271.889176	0.097017	0.241733	1591.687134
2271.890109	0.097035	0.241733	1682.220703
2271.891012	0.097009	0.241733	1769.820068
2271.891916	0.097061	0.241733	1857.562744
2271.892802	0.096998	0.241733	1943.503174
2271.893732	0.097090	0.241733	2033.796753
2271.894643	0.096998	0.241733	2122.162109
2271.895542	0.096951	0.241733	2209.320801
2272.896202	1.406649	0.245621	618.925598
2272.897161	0.674418	0.245621	1265.692139
2272.898068	0.097705	0.245621	1354.310669
2272.898969	0.097024	0.245621	1441.729248
2272.899903	0.097094	0.245621	1532.414551
2272.900805	0.097108	0.245621	1620.006104
2272.901709	0.097031	0.245621	1707.722412
2272.902600	0.097050	0.245621	1794.193604
2272.903552	0.097097	0.245621	1886.630127
2272.904459	0.097079	0.245621	1974.680664
2272.905350	0.097024	0.245621	2061.128906
2272.906257	0.097123	0.245621	2149.219238
2273.896916	1.413018	0.236516	621.727783
2273.897854	0.701122	0.236516	1279.380127
2273.898748	0.097972	0.236516	1366.967529
2273.899684	0.097002	0.236516	1457.761353
2273.900587	0.097101	0.236516	1545.443359
2273.901478	0.096995	0.236516	1631.865601
2273.902366	0.097024	0.236516	1718.022827
2273.903301	0.097050	0.236516	1808.764160
2273.904206	0.097094	0.236516	1896.633789
2273.905110	0.097042	0.236516	1984.359985
2273.906000	0.097017	0.236516	2070.704834
2273.906944	0.097134	0.236516	2162.399170
2274.909693	1.453378	0.248251	710.701660
2274.910623	0.621987	0.248251	1289.149902
2274.911525	0.097610	0.248251	1377.193970
2274.912413	0.097013	0.248251	1463.341431
2274.913360	0.097148	0.248251	1555.341064
2274.914270	0.097079	0.248251	1643.682861
2274.915166	0.097057	0.248251	1730.645874
2274.916083	0.097061	0.248251	1819.650391
2274.916990	0.097181	0.248251	1907.793945
2274.917899	0.097068	0.248251	1996.028687
2274.918787	0.097017	0.248251	2082.179443
2274.919717	0.097086	0.248251	2172.469482
2275.911898	1.413798	0.227928	634.795105
2275.912798	0.755303	0.227928	1314.567627
2275.913739	0.098507	0.227928	1407.262817
2275.914642	0.096998	0.227928	1494.852295
2275.915555	0.097035	0.227928	1583.445190
2275.916450	0.097017	0.227928	1670.275024
2275.917401	0.096998	0.227928	1762.520386
2275.918305	0.096973	0.227928	1850.183716
2275.919230	0.097072	0.227928	1939.974854
2275.920123	0.097050	0.227928	2026.640137
2275.921063	0.097020	0.227928	2117.839111
2275.921960	0.097057	0.227928	2204.899170
2276.922574	1.405609	0.245496	622.684814
2276.923547	0.644443	0.245496	1249.728149
2276.924452	0.097617	0.245496	1338.071655
2276.925352	0.096995	0.245496	1425.366821
2276.926239	0.096998	0.245496	1511.404297
2276.927187	0.097064	0.245496	1603.421143
2276.928085	0.097024	0.245496	1690.548584
2276.928978	0.097072	0.245496	1777.233521
2276.929904	0.097101	0.245496	1867.148926
2276.930821	0.097137	0.245496	1956.223999
2276.931721	0.097035	0.245496	2043.555420
2276.932609	0.097094	0.245496	2129.774414
2277.927378	1.405770	0.225882	625.567749
2277.928279	0.765582	0.225882	1315.357422
2277.929219	0.098635	0.225882	1408.074585
2277.930137	0.097094	0.225882	1497.206421
2277.931034	0.096991	0.225882	1584.207275
2277.931926	0.097053	0.225882	1670.778809
2277.932858	0.097072	0.225882	1761.249512
2277.933759	0.097053	0.225882	1848.694458
2277.934657	0.096980	0.225882	1935.782471
2277.935543	0.097053	0.225882	2021.771606
2277.936479	0.097141	0.225882	2112.695801
2277.937392	0.097057	0.225882	2201.308838
2278.933203	1.412615	0.251103	622.963074
2278.934147	0.697493	0.251103	1281.396118
2278.935037	0.097841	0.251103	1368.474243
2278.935981	0.096958	0.251103	1460.002563
2278.936878	0.097115	0.251103	1547.115112
2278.937777	0.097009	0.251103	1634.326416
2278.938665	0.097028	0.251103	1720.486938
2278.939593	0.097094	0.251103	1810.589722
2278.940506	0.097013	0.251103	1899.162598
2278.941406	0.097075	0.251103	1986.530273
2278.942301	0.097017	0.251103	2073.360107
2278.943242	0.097119	0.251103	2164.749268
2279.944898	1.392231	0.219162	602.836243
2279.945857	0.703363	0.219162	1277.361328
2279.946771	0.097650	0.219162	1366.613525
2279.947676	0.096921	0.219162	1454.327393
2279.948570	0.097013	0.219162	1541.057007
2279.949511	0.097137	0.219162	1632.463379
2279.950422	0.097050	0.219162	1720.875488
2279.951315	0.097072	0.219162	1807.560425
2279.952221	0.097035	0.219162	1895.473999
2279.953141	0.097130	0.219162	1984.833740
2279.954046	0.097031	0.219162	2072.646973
2279.954944	0.097013	0.219162	2159.764648
2280.942544	1.405305	0.263538	622.550232
2280.943474	0.742203	0.263538	1312.799316
2280.944414	0.097533	0.263538	1404.480347
2280.945339	0.097057	0.263538	1494.257935
2280.946236	0.097075	0.263538	1581.334351
2280.947189	0.097068	0.263538	1673.840088
2280.948094	0.096984	0.263538	1761.610229
2280.948983	0.097075	0.263538	1847.910034
2280.949910	0.097072	0.263538	1937.895386
2280.950825	0.096925	0.263538	2026.581787
2280.951735	0.097057	0.263538	2114.903564
2280.952622	0.097009	0.263538	2200.950684
2281.963474	1.415105	0.215759	624.061279
2281.964389	0.739168	0.215759	1300.399536
2281.965282	0.098317	0.215759	1388.196289
2281.966237	0.097057	0.215759	1480.885620
2281.967144	0.097039	0.215759	1568.899658
2281.968039	0.097002	0.215759	1655.716431
2281.968974	0.097104	0.215759	1746.509155
2281.969877	0.097072	0.215759	1834.164795
2281.970772	0.097053	0.215759	1921.027466
2281.971660	0.097006	0.215759	2007.168457
2281.972600	0.097097	0.215759	2098.439697
2281.973509	0.097079	0.215759	2186.684326
2282.951372	1.406459	0.261085	620.248291
2282.952353	0.654844	0.261085	1262.650024
2282.953255	0.097665	0.261085	1350.743652
2282.954157	0.096973	0.261085	1438.213013
2282.955042	0.097115	0.261085	1524.160156
2282.955979	0.097137	0.261085	1615.177979
2282.956882	0.097068	0.261085	1702.830322
2282.957781	0.097079	0.261085	1790.104248
2282.958714	0.097072	0.261085	1880.671997
2282.959630	0.097123	0.261085	1969.636475
2282.960529	0.097046	0.261085	2056.880859
2282.961420	0.097039	0.261085	2143.342285
2283.979985	1.420880	0.217185	633.712524
2283.980895	0.746433	0.217185	1312.966553
2283.981801	0.098463	0.217185	1402.174194
2283.982721	0.097068	0.217185	1491.476685
2283.983630	0.097035	0.217185	1579.681396
2283.984520	0.097035	0.217185	1666.042480
2283.985465	0.097068	0.217185	1757.771606
2283.986366	0.097126	0.217185	1845.282593
2283.987269	0.097046	0.217185	1932.915039
2283.988153	0.096980	0.217185	2018.645386
2283.989086	0.097068	0.217185	2109.209717
2283.989995	0.097050	0.217185	2197.427734
2284.962531	1.424648	0.261883	645.365723
2284.963457	0.699412	0.261883	1293.020874
2284.964354	0.097874	0.261883	1380.813477
2284.965290	0.097009	0.261883	1471.614136
2284.966203	0.097064	0.261883	1560.233765
2284.967104	0.097079	0.261883	1647.701782
2284.967990	0.096962	0.261883	1733.609863
2284.968950	0.097097	0.261883	1826.823120
2284.969851	0.097042	0.261883	1914.258179
2284.970750	0.096976	0.261883	2001.439941
2284.971637	0.096958	0.261883	2087.441650
2284.972585	0.097112	0.261883	2179.503662
2285.993432	1.414746	0.224649	630.976746
2285.994339	0.752662	0.224649	1313.641479
2285.995227	0.098489	0.224649	1401.099487
2285.996181	0.096980	0.224649	1493.618408
2285.997097	0.097050	0.224649	1582.515869
2285.998017	0.097031	0.224649	1671.784668
2285.998902	0.097112	0.224649	1757.728638
2285.999840	0.097072	0.224649	1848.781738
2286.000739	0.097013	0.224649	1935.996338
2286.001631	0.097042	0.224649	2022.557983
2286.002553	0.097119	0.224649	2112.101807
2286.003476	0.096991	0.224649	2201.624512
2286.977735	1.391770	0.255095	604.028198
2286.978664	0.776371	0.255095	1325.276733
2286.979588	0.097778	0.255095	1415.623901
2286.980491	0.096892	0.255095	1503.117432
2286.981379	0.096962	0.255095	1589.219360
2286.982331	0.097108	0.255095	1681.666260
2286.983238	0.096918	0.255095	1769.570679
2286.984138	0.097009	0.255095	1856.879028
2286.985022	0.097020	0.255095	1942.644897
2286.985950	0.097108	0.255095	2032.761230
2286.986858	0.096980	0.255095	2120.819092
2286.987752	0.096998	0.255095	2207.535645
2288.004040	1.394088	0.224399	605.034241
2288.004973	0.743686	0.224399	1298.893799
2288.005877	0.098108	0.224399	1387.583374
2288.006780	0.096987	0.224399	1475.162842
2288.007669	0.097009	0.224399	1561.404053
2288.008628	0.097108	0.224399	1654.530762
2288.009531	0.097075	0.224399	1742.189697
2288.010426	0.097006	0.224399	1829.009766
2288.011315	0.097075	0.224399	1915.309570
2288.012269	0.097156	0.224399	2007.996216
2288.013182	0.097002	0.224399	2096.559082
2288.014087	0.097024	0.224399	2184.365723
2288.995546	1.425685	0.246031	641.558167
2288.996472	0.707208	0.246031	1296.432983
2288.997367	0.097969	0.246031	1384.114990
2288.998304	0.097009	0.246031	1475.012695
2288.999207	0.097057	0.246031	1562.655029
2289.000113	0.096998	0.246031	1650.535522
2289.001002	0.097123	0.246031	1736.877686
2289.001949	0.097112	0.246031	1828.842529
2289.002856	0.097042	0.246031	1916.859863
2289.003748	0.097050	0.246031	2003.428101
2289.004651	0.097020	0.246031	2091.037354
2289.005575	0.097115	0.246031	2180.771973
2290.013637	1.389716	0.230418	601.746826
2290.014554	0.776239	0.230418	1313.557983
2290.015494	0.097899	0.230418	1405.583252
2290.016401	0.096918	0.230418	1493.487671
2290.017297	0.097068	0.230418	1580.460449
2290.018246	0.097090	0.230418	1672.598755
2290.019145	0.097024	0.230418	1759.823242
2290.020043	0.097064	0.230418	1846.986938
2290.020928	0.097042	0.230418	1932.869263
2290.021869	0.097112	0.230418	2024.251465
2290.022780	0.097083	0.230418	2112.693604
2290.023680	0.097050	0.230418	2200.038086
2291.013335	1.407323	0.241826	626.258728
2291.014228	0.764824	0.241826	1309.246826
2291.015175	0.097917	0.241826	1401.974731
2291.016089	0.096958	0.241826	1490.594360
2291.016986	0.096962	0.241826	1577.568970
2291.017908	0.097097	0.241826	1667.092529
2291.018817	0.097112	0.241826	1755.367187
2291.019725	0.097028	0.241826	1843.468262
2291.020611	0.096995	0.241826	1929.405518
2291.021552	0.097097	0.241826	2020.773926
2291.022462	0.097046	0.241826	2109.085693
2291.023361	0.096987	0.241826	2196.277344
2292.022995	1.398208	0.234736	622.202576
2292.023893	0.776620	0.234736	1319.607178
2292.024778	0.098646	0.234736	1406.909058
2292.025740	0.097072	0.234736	1500.291870
2292.026636	0.097064	0.234736	1587.261353
2292.027559	0.097053	0.234736	1676.841431
2292.028448	0.097057	0.234736	1763.125000
2292.029392	0.097031	0.234736	1854.722534
2292.030297	0.097024	0.234736	1942.529175
2292.031189	0.097020	0.234736	2029.071289
2292.032112	0.097072	0.234736	2118.668213
2292.033021	0.097031	0.234736	2206.869629
2293.030096	1.401617	0.239111	620.916504
2293.030993	0.773888	0.239111	1315.093994
2293.031965	0.097709	0.239111	1410.066895
2293.032858	0.097009	0.239111	1496.696167
2293.033781	0.097017	0.239111	1586.242432
2293.034676	0.097020	0.239111	1673.075562
2293.035609	0.097126	0.239111	1763.694580
2293.036512	0.097039	0.239111	1851.320435
2293.037398	0.096991	0.239111	1937.254395
2293.038337	0.097108	0.239111	2028.438965
2293.039256	0.097009	0.239111	2117.590576
2293.040157	0.097046	0.239111	2205.028809
2294.033605	1.388302	0.238768	599.746460
2294.034553	0.709050	0.238768	1271.926147
2294.035457	0.098013	0.238768	1360.529663
2294.036357	0.097042	0.238768	1447.867676
2294.037242	0.097090	0.238768	1533.792236
2294.038189	0.097152	0.238768	1625.795288
2294.039095	0.097050	0.238768	1713.722168
2294.039985	0.097068	0.238768	1800.112549
2294.040912	0.097097	0.238768	1890.121582
2294.041815	0.097145	0.238768	1977.843262
2294.042721	0.097097	0.238768	2065.813232
2294.043617	0.097064	0.238768	2152.782715
2295.044587	1.438799	0.248472	658.969849
2295.045516	0.710486	0.248472	1319.011230
2295.046413	0.097910	0.248472	1406.836670
2295.047301	0.097006	0.248472	1492.977661
2295.048248	0.097134	0.248472	1584.963379
2295.049156	0.096951	0.248472	1672.994629
2295.050057	0.097057	0.248472	1760.442871
2295.050982	0.097057	0.248472	1850.220459
2295.051889	0.097086	0.248472	1938.277588
2295.052789	0.097024	0.248472	2025.599121
2295.053676	0.097075	0.248472	2111.704834
2295.054624	0.097079	0.248472	2203.735596
2296.046286	1.407543	0.234748	620.726379
2296.047180	0.766849	0.234748	1306.289673
2296.048148	0.097808	0.234748	1400.967407
2296.049060	0.096910	0.234748	1489.349731
2296.049956	0.097053	0.234748	1576.309448
2296.050903	0.097057	0.234748	1668.222290
2296.051802	0.097053	0.234748	1755.473145
2296.052699	0.097064	0.234748	1842.539795
2296.053585	0.097083	0.234748	1928.554932
2296.054510	0.097061	0.234748	2018.335937
2296.055412	0.097068	0.234748	2105.891113
2296.056323	0.097042	0.234748	2194.296631
2297.057280	1.419031	0.251437	699.582153
2297.058204	0.637280	0.251437	1288.429199
2297.059117	0.097592	0.251437	1377.530273
2297.060018	0.096991	0.251437	1464.919189
2297.060908	0.097028	0.251437	1551.273804
2297.061810	0.097020	0.251437	1638.786133
2297.062757	0.096951	0.251437	1730.598389
2297.063681	0.097006	0.251437	1820.231567
2297.064580	0.097064	0.251437	1907.492310
2297.065537	0.097031	0.251437	2000.351196
2297.066444	0.096976	0.251437	2088.308594
2297.067360	0.097017	0.251437	2177.175781
2298.058705	1.404144	0.234539	623.440063
2298.059609	0.762777	0.234539	1312.990479
2298.060496	0.098558	0.234539	1400.411743
2298.061450	0.096973	0.234539	1492.923706
2298.062342	0.097035	0.234539	1579.478882
2298.063264	0.097068	0.234539	1668.975464
2298.064162	0.097075	0.234539	1756.148926
2298.065097	0.097057	0.234539	1846.897095
2298.066001	0.097009	0.234539	1934.593506
2298.066894	0.097028	0.234539	2021.239136
2298.067828	0.097064	0.234539	2111.897217
2298.068743	0.097024	0.234539	2200.674072
2299.068884	1.424865	0.253081	641.189026
2299.069785	0.741035	0.253081	1308.861572
2299.070746	0.097903	0.253081	1402.946167
2299.071648	0.097079	0.253081	1490.511353
2299.072544	0.097068	0.253081	1577.484131
2299.073433	0.097057	0.253081	1663.767700
2299.074374	0.097156	0.253081	1755.191284
2299.075286	0.097072	0.253081	1843.720581
2299.076188	0.097101	0.253081	1931.305542
2299.077120	0.097031	0.253081	2021.738647
2299.078023	0.097178	0.253081	2109.490234
2299.078922	0.097108	0.253081	2196.790527
2300.074704	1.404108	0.233318	616.403259
2300.075612	0.773683	0.233318	1318.907349
2300.076502	0.098544	0.233318	1406.611206
2300.077441	0.097064	0.233318	1497.754517
2300.078346	0.097094	0.233318	1585.624146
2300.079252	0.097020	0.233318	1673.524536
2300.080144	0.097090	0.233318	1760.128662
2300.081085	0.097123	0.233318	1851.521240
2300.081994	0.096998	0.233318	1939.692627
2300.082887	0.097024	0.233318	2026.334961
2300.083827	0.097083	0.233318	2117.592529
2300.084725	0.097094	0.233318	2204.782471
2301.080794	1.415094	0.256529	624.056458
2301.081728	0.710801	0.256529	1287.944336
2301.082631	0.097917	0.256529	1376.363770
2301.083559	0.097013	0.256529	1466.391724
2301.084469	0.097115	0.256529	1554.766846
2301.085373	0.096980	0.256529	1642.436768
2301.086263	0.097053	0.256529	1728.814087
2301.087200	0.097042	0.256529	1819.742676
2301.088108	0.097031	0.256529	1907.847046
2301.089002	0.097006	0.256529	1994.570068
2301.089886	0.096973	0.256529	2080.293945
2301.090821	0.097152	0.256529	2171.131104
2302.087891	1.412538	0.231936	622.929199
2302.088797	0.753787	0.231936	1305.859863
2302.089683	0.098599	0.231936	1393.218262
2302.090644	0.097108	0.231936	1486.539185
2302.091550	0.097126	0.231936	1574.535767
2302.092442	0.097020	0.231936	1661.077881
2302.093354	0.097115	0.231936	1749.647217
2302.094260	0.097123	0.231936	1837.640503
2302.095166	0.097090	0.231936	1925.603882
2302.096064	0.097126	0.231936	2012.823486
2302.096983	0.097112	0.231936	2102.069336
2302.097870	0.097145	0.231936	2188.236816
2303.093749	1.412435	0.258596	682.206238
2303.094683	0.648402	0.258596	1287.813721
2303.095578	0.097731	0.258596	1375.282715
2303.096466	0.097083	0.258596	1461.491943
2303.097408	0.097159	0.258596	1553.016113
2303.098329	0.097159	0.258596	1642.500000
2303.099225	0.097126	0.258596	1729.525269
2303.100113	0.097174	0.258596	1815.815796
2303.101071	0.097229	0.258596	1908.961182
2303.101972	0.097148	0.258596	1996.491943
2303.102861	0.097189	0.258596	2082.892822
2303.103785	0.097225	0.258596	2172.729004
2304.101587	1.406909	0.228601	623.260742
2304.102490	0.765945	0.228601	1314.908936
2304.103429	0.098533	0.228601	1407.431152
2304.104335	0.097123	0.228601	1495.424438
2304.105236	0.097083	0.228601	1582.895752
2304.106124	0.097174	0.228601	1669.186279
2304.107064	0.097207	0.228601	1760.560913
2304.107971	0.097123	0.228601	1848.651245
2304.108868	0.097170	0.228601	1935.813110
2304.109770	0.097145	0.228601	2023.437744
2304.110702	0.097167	0.228601	2113.997070
2304.111613	0.097097	0.228601	2202.452637
2305.106409	1.417771	0.259659	663.516846
2305.107344	0.653884	0.259659	1274.898682
2305.108262	0.097793	0.259659	1364.672607
2305.109150	0.097083	0.259659	1450.881836
2305.110097	0.097262	0.259659	1542.988892
2305.110999	0.097233	0.259659	1630.692749
2305.111903	0.097137	0.259659	1718.505005
2305.112797	0.097152	0.259659	1805.359009
2305.113749	0.097218	0.259659	1897.910522
2305.114658	0.097192	0.259659	1986.258423
2305.115553	0.097170	0.259659	2073.225830
2305.116485	0.097148	0.259659	2163.768066
2306.114526	1.417288	0.234156	644.865845
2306.115426	0.751838	0.234156	1321.520386
2306.116364	0.098503	0.234156	1413.916626
2306.117265	0.097130	0.234156	1501.430908
2306.118175	0.097104	0.234156	1589.796021
2306.119073	0.097145	0.234156	1677.031982
2306.120009	0.097222	0.234156	1768.031494
2306.120919	0.097185	0.234156	1856.469849
2306.121825	0.097141	0.234156	1944.479736
2306.122713	0.097090	0.234156	2030.695557
2306.123660	0.097211	0.234156	2122.754150
2306.124568	0.097094	0.234156	2210.915039
2307.118540	1.405554	0.265742	618.443848
2307.119440	0.764784	0.265742	1306.749390
2307.120396	0.097950	0.265742	1400.390015
2307.121302	0.097086	0.265742	1488.350098
2307.122202	0.097167	0.265742	1575.800171
2307.123137	0.097134	0.265742	1666.620239
2307.124044	0.097244	0.265742	1754.820190
2307.124951	0.097200	0.265742	1842.980347
2307.125838	0.097189	0.265742	1929.186768
2307.126786	0.097192	0.265742	2021.325195
2307.127689	0.097174	0.265742	2109.073486
2307.128579	0.097192	0.265742	2195.574707
2308.127475	1.465638	0.234470	691.781311
2308.128396	0.657850	0.234470	1297.661377
2308.129323	0.097548	0.234470	1388.088013
2308.130210	0.097101	0.234470	1474.216431
2308.131161	0.097170	0.234470	1566.625488
2308.132051	0.097119	0.234470	1653.061523
2308.132942	0.097196	0.234470	1739.663208
2308.133885	0.097130	0.234470	1831.256958
2308.134786	0.097086	0.234470	1918.731567
2308.135703	0.097050	0.234470	2007.726074
2308.136599	0.097145	0.234470	2094.767822
2308.137539	0.097207	0.234470	2186.142334
2309.133339	1.447932	0.262914	752.924683
2309.134265	0.593987	0.262914	1302.956543
2309.135159	0.097518	0.262914	1390.137939
2309.136048	0.097130	0.262914	1476.486572
2309.136988	0.097273	0.262914	1567.923096
2309.137890	0.097148	0.262914	1655.551025
2309.138807	0.097145	0.262914	1744.632812
2309.139701	0.097156	0.262914	1831.490112
2309.140656	0.097218	0.262914	1924.333374
2309.141563	0.097196	0.262914	2012.490234
2309.142453	0.097266	0.262914	2099.056641
2309.143399	0.097225	0.262914	2191.031738
2310.140375	1.411003	0.241632	625.074524
2310.141279	0.769962	0.241632	1321.120361
2310.142165	0.098785	0.241632	1408.644287
2310.143105	0.097225	0.241632	1500.036133
2310.144009	0.097218	0.241632	1587.921265
2310.144920	0.097152	0.241632	1676.426880
2310.145809	0.097159	0.241632	1762.801636
2310.146758	0.097163	0.241632	1855.009399
2310.147673	0.097134	0.241632	1943.886841
2310.148566	0.097112	0.241632	2030.607666
2310.149502	0.097167	0.241632	2121.555664
2310.150400	0.097189	0.241632	2208.831055
2311.147494	1.450532	0.258036	680.299622
2311.148404	0.696881	0.258036	1314.461426
2311.149344	0.098170	0.258036	1406.741333
2311.150249	0.097170	0.258036	1494.680542
2311.151151	0.097145	0.258036	1582.305176
2311.152037	0.097181	0.258036	1668.407837
2311.152989	0.097229	0.258036	1760.969849
2311.153886	0.097174	0.258036	1848.135010
2311.154785	0.097101	0.258036	1935.428711
2311.155671	0.097079	0.258036	2021.440552
2311.156610	0.097200	0.258036	2112.711182
2311.157524	0.097126	0.258036	2201.484863
2312.153304	1.418254	0.236537	628.286682
2312.154232	0.717561	0.236537	1294.183350
2312.155121	0.098331	0.236537	1381.599854
2312.156082	0.097112	0.236537	1474.924316
2312.156994	0.097211	0.236537	1563.580444
2312.157887	0.097119	0.236537	1650.307861
2312.158779	0.097196	0.236537	1737.006714
2312.159734	0.097244	0.236537	1829.874390
2312.160642	0.097130	0.236537	1918.068604
2312.161537	0.097200	0.236537	2005.062378
2312.162468	0.097214	0.236537	2095.568848
2312.163370	0.097269	0.236537	2183.305664
2313.161926	1.393359	0.255059	606.111267
2313.162903	0.644626	0.255059	1235.911377
2313.163817	0.097650	0.255059	1325.163574
2313.164713	0.096969	0.255059	1412.047852
2313.165646	0.097090	0.255059	1502.632690
2313.166558	0.097258	0.255059	1591.332275
2313.167471	0.097057	0.255059	1679.945190
2313.168366	0.097072	0.255059	1766.824219
2313.169307	0.097159	0.255059	1858.251221
2313.170206	0.097094	0.255059	1945.538330
2313.171109	0.097119	0.255059	2033.236938
2313.172000	0.097072	0.255059	2119.727783
2314.164683	1.394264	0.237713	607.899109
2314.165633	0.751857	0.237713	1322.162964
2314.166529	0.098009	0.237713	1409.979004
2314.167425	0.096991	0.237713	1496.882935
2314.168319	0.097024	0.237713	1583.622314
2314.169259	0.097053	0.237713	1674.852295
2314.170166	0.096914	0.237713	1762.753296
2314.171068	0.097035	0.237713	1850.278809
2314.171956	0.097020	0.237713	1936.432861
2314.172909	0.097115	0.237713	2028.983887
2314.173816	0.096995	0.237713	2116.958008
2314.174712	0.097035	0.237713	2203.901367
2315.175666	1.442186	0.258100	690.807190
2315.176591	0.648735	0.258100	1290.887451
2315.177490	0.097676	0.258100	1378.697998
2315.178376	0.097002	0.258100	1464.641724
2315.179322	0.097145	0.258100	1556.540649
2315.180229	0.097017	0.258100	1644.534668
2315.181126	0.097006	0.258100	1731.548706
2315.182029	0.097079	0.258100	1819.210937
2315.182960	0.097094	0.258100	1909.604980
2315.183868	0.096987	0.258100	1997.669434
2315.184759	0.097020	0.258100	2084.114502
2315.185688	0.097057	0.258100	2174.280273
2316.178631	1.391693	0.238962	606.778198
2316.179611	0.633285	0.238962	1227.397339
2316.180519	0.097621	0.238962	1316.037109
2316.181420	0.096998	0.238962	1403.432617
2316.182309	0.097141	0.238962	1489.791016
2316.183249	0.097083	0.238962	1581.048584
2316.184144	0.097042	0.238962	1667.901367
2316.185032	0.097112	0.238962	1754.136719
2316.185948	0.097159	0.238962	1843.134766
2316.186861	0.097057	0.238962	1931.747681
2316.187764	0.097101	0.238962	2019.429687
2316.188655	0.097050	0.238962	2105.900879
2317.188881	1.492921	0.257146	761.389771
2317.189811	0.590815	0.257146	1310.848145
2317.190719	0.097427	0.257146	1399.311646
2317.191606	0.096976	0.257146	1485.329590
2317.192557	0.097115	0.257146	1577.686401
2317.193463	0.097072	0.257146	1665.633179
2317.194352	0.097028	0.257146	1751.890747
2317.195280	0.097148	0.257146	1842.044556
2317.196179	0.097112	0.257146	1929.348022
2317.197088	0.097031	0.257146	2017.549438
2317.197983	0.097090	0.257146	2104.444824
2317.198915	0.097141	0.257146	2194.980225
2318.191869	1.424260	0.246841	695.039001
2318.192788	0.661707	0.246841	1303.147339
2318.193684	0.097731	0.246841	1390.714111
2318.194569	0.097053	0.246841	1476.606201
2318.195511	0.097156	0.246841	1568.126953
2318.196411	0.097064	0.246841	1655.484741
2318.197311	0.097094	0.246841	1742.868896
2318.198201	0.097042	0.246841	1829.236450
2318.199149	0.097101	0.246841	1921.288086
2318.200057	0.097050	0.246841	2009.409058
2318.200948	0.097079	0.246841	2095.906250
2318.201873	0.097119	0.246841	2185.741455
2319.200213	1.421151	0.256598	640.939148
2319.201111	0.762832	0.256598	1325.962280
2319.202064	0.098093	0.256598	1419.445190
2319.202973	0.097020	0.256598	1507.636597
2319.203863	0.097072	0.256598	1594.030273
2319.204752	0.097075	0.256598	1680.330078
2319.205693	0.097156	0.256598	1771.753662
2319.206597	0.097024	0.256598	1859.463257
2319.207495	0.097079	0.256598	1946.640137
2319.208426	0.097119	0.256598	2037.058105
2319.209327	0.097094	0.256598	2124.539307
2319.210234	0.097050	0.256598	2212.563232
2320.207320	1.405514	0.249274	629.670227
2320.208222	0.765546	0.249274	1320.192383
2320.209155	0.098540	0.249274	1412.130249
2320.210073	0.096899	0.249274	1501.083862
2320.210975	0.097079	0.249274	1588.649048
2320.211865	0.097061	0.249274	1675.032959
2320.212804	0.097057	0.249274	1766.169434
2320.213718	0.097090	0.249274	1854.909546
2320.214637	0.097101	0.249274	1944.145264
2320.215523	0.097086	0.249274	2030.163574
2320.216472	0.097072	0.249274	2122.284424
2320.217368	0.097039	0.249274	2209.230957
2321.209833	1.441014	0.257842	659.984619
2321.210743	0.713317	0.257842	1309.102783
2321.211699	0.098174	0.257842	1402.956909
2321.212597	0.097050	0.257842	1490.107422
2321.213489	0.097148	0.257842	1576.763794
2321.214373	0.097068	0.257842	1662.571777
2321.215314	0.097170	0.257842	1754.009155
2321.216223	0.097119	0.257842	1842.290405
2321.217129	0.097079	0.257842	1930.243896
2321.218020	0.097134	0.257842	2016.790039
2321.218968	0.097156	0.257842	2108.893799
2321.219876	0.097039	0.257842	2197.004883
2322.223307	1.395916	0.251671	612.806885
2322.224200	0.787170	0.251671	1315.750000
2322.225169	0.097863	0.251671	1410.578857
2322.226068	0.097024	0.251671	1497.803345
2322.226968	0.097097	0.251671	1585.190796
2322.227852	0.097083	0.251671	1671.011719
2322.228793	0.097196	0.251671	1762.473145
2322.229697	0.097090	0.251671	1850.242310
2322.230597	0.097083	0.251671	1937.616577
2322.231530	0.097075	0.251671	2028.187744
2322.232439	0.097115	0.251671	2116.465820
2322.233340	0.096998	0.251671	2203.861328
2323.219161	1.417233	0.266346	632.085754
2323.220061	0.762612	0.266346	1318.436768
2323.220947	0.098617	0.266346	1405.811401
2323.221878	0.097094	0.266346	1496.205444
2323.222793	0.097072	0.266346	1585.025879
2323.223693	0.097104	0.266346	1672.419922
2323.224620	0.097050	0.266346	1762.384888
2323.225532	0.097170	0.266346	1851.004272
2323.226440	0.097035	0.266346	1939.111938
2323.227338	0.097126	0.266346	2026.331543
2323.228277	0.097130	0.266346	2117.536621
2323.229188	0.097097	0.266346	2205.992187
2324.240587	1.404796	0.247147	619.515137
2324.241577	0.636105	0.247147	1249.258789
2324.242477	0.097540	0.247147	1337.045044
2324.243377	0.097017	0.247147	1424.359985
2324.244262	0.097017	0.247147	1510.219727
2324.245197	0.097115	0.247147	1601.022705
2324.246103	0.097112	0.247147	1689.005981
2324.247001	0.097009	0.247147	1776.120361
2324.247938	0.097061	0.247147	1867.066040
2324.248849	0.097112	0.247147	1955.534912
2324.249748	0.097061	0.247147	2042.792358
2324.250638	0.097086	0.247147	2129.198975
2325.229779	1.408883	0.266898	622.726257
2325.230671	0.778279	0.266898	1316.950928
2325.231630	0.097936	0.266898	1410.871338
2325.232540	0.096947	0.266898	1499.093140
2325.233426	0.097046	0.266898	1585.075806
2325.234340	0.097090	0.266898	1673.815918
2325.235273	0.097079	0.266898	1764.390503
2325.236177	0.097031	0.266898	1852.106689
2325.237073	0.097006	0.266898	1939.023682
2325.238000	0.097152	0.266898	2029.083740
2325.238900	0.097086	0.266898	2116.461182
2325.239797	0.097068	0.266898	2203.531006
2326.255829	1.416665	0.244198	634.665894
2326.256730	0.764253	0.244198	1323.257812
2326.257619	0.098496	0.244198	1410.820801
2326.258560	0.097090	0.244198	1502.182373
2326.259479	0.097031	0.244198	1591.354126
2326.260392	0.097057	0.244198	1679.967041
2326.261289	0.097108	0.244198	1767.072998
2326.262229	0.097061	0.244198	1858.309937
2326.263128	0.097031	0.244198	1945.541016
2326.264015	0.097024	0.244198	2031.601196
2326.264946	0.097156	0.244198	2122.053223
2326.265854	0.097061	0.244198	2210.184082
2327.242463	1.428992	0.270334	645.904236
2327.243365	0.743412	0.270334	1316.461792
2327.244321	0.098317	0.270334	1410.452515
2327.245233	0.097020	0.270334	1498.934937
2327.246133	0.097017	0.270334	1586.249878
2327.247020	0.096973	0.270334	1672.264648
2327.247957	0.097061	0.270334	1763.210327
2327.248852	0.097035	0.270334	1850.056519
2327.249759	0.097046	0.270334	1938.077148
2327.250647	0.096984	0.270334	2024.198608
2327.251594	0.097159	0.270334	2116.208496
2327.252495	0.096980	0.270334	2203.587402
2328.271322	1.425465	0.237318	632.906494
2328.272240	0.737040	0.237318	1309.509033
2328.273139	0.098148	0.237318	1397.744263
2328.274055	0.097039	0.237318	1486.631592
2328.274978	0.097086	0.237318	1576.242187
2328.275883	0.097046	0.237318	1664.068726
2328.276778	0.097050	0.237318	1750.928101
2328.277722	0.097137	0.237318	1842.625854
2328.278630	0.097108	0.237318	1930.800049
2328.279534	0.097035	0.237318	2018.519653
2328.280421	0.096980	0.237318	2104.541016
2328.281347	0.097108	0.237318	2194.463135
2329.255902	1.427098	0.268517	645.048462
2329.256800	0.755453	0.268517	1323.445068
2329.257755	0.097932	0.268517	1416.970215
2329.258659	0.097024	0.268517	1504.679810
2329.259561	0.097042	0.268517	1592.211914
2329.260450	0.097035	0.268517	1678.475952
2329.261401	0.097068	0.268517	1770.787476
2329.262305	0.097057	0.268517	1858.526855
2329.263203	0.097039	0.268517	1945.667480
2329.264134	0.097057	0.268517	2036.027466
2329.265040	0.097108	0.268517	2124.007324
2329.265936	0.097002	0.268517	2210.921143
2330.283471	1.403350	0.234522	617.473816
2330.284444	0.643561	0.234522	1243.658447
2330.285353	0.097731	0.234522	1332.495728
2330.286253	0.097050	0.234522	1419.840332
2330.287157	0.097115	0.234522	1507.632690
2330.288082	0.097170	0.234522	1597.515381
2330.288991	0.096976	0.234522	1685.666870
2330.289892	0.097042	0.234522	1773.101929
2330.290815	0.097130	0.234522	1862.753052
2330.291717	0.097035	0.234522	1950.278564
2330.292619	0.097072	0.234522	2037.837036
2330.293508	0.096998	0.234522	2124.068604
2331.271390	1.416409	0.266290	633.134644
2331.272309	0.726116	0.266290	1300.435059
2331.273211	0.097998	0.266290	1388.829346
2331.274129	0.096954	0.266290	1477.833496
2331.275022	0.096925	0.266290	1564.387573
2331.275970	0.096940	0.266290	1656.286377
2331.276892	0.097035	0.266290	1745.752563
2331.277781	0.097053	0.266290	1832.032837
2331.278711	0.097020	0.266290	1922.261719
2331.279620	0.097020	0.266290	2010.453125
2331.280540	0.097042	0.266290	2099.731934
2331.281429	0.097053	0.266290	2186.012207
2332.293838	1.406616	0.228766	624.537598
2332.294823	0.628444	0.228766	1243.554565
2332.295720	0.097496	0.228766	1331.008789
2332.296608	0.096998	0.228766	1417.143311
2332.297552	0.097061	0.228766	1508.768433
2332.298464	0.097039	0.228766	1597.267578
2332.299370	0.097009	0.228766	1685.157959
2332.300261	0.097072	0.228766	1771.648682
2332.301186	0.097126	0.228766	1861.490723
2332.302096	0.097020	0.228766	1949.779175
2332.302992	0.097053	0.228766	2036.738892
2332.303879	0.097035	0.228766	2122.808838
2333.286601	1.397391	0.274242	612.057373
2333.287566	0.659923	0.274242	1248.883057
2333.288475	0.097694	0.274242	1337.687012
2333.289376	0.096976	0.274242	1425.062622
2333.290303	0.097112	0.274242	1515.085327
2333.291211	0.097159	0.274242	1603.306030
2333.292117	0.097028	0.274242	1691.213013
2333.293008	0.097130	0.274242	1777.755981
2333.293944	0.097112	0.274242	1868.652588
2333.294842	0.097101	0.274242	1955.849121
2333.295743	0.097028	0.274242	2043.270996
2333.296635	0.097068	0.274242	2129.855469
2334.302913	1.389247	0.234104	600.154602
2334.303888	0.665002	0.234104	1248.531982
2334.304801	0.097584	0.234104	1337.626343
2334.305707	0.096980	0.234104	1425.490234
2334.306592	0.097013	0.234104	1511.346680
2334.307527	0.097050	0.234104	1602.088013
2334.308434	0.097020	0.234104	1690.085449
2334.309325	0.096991	0.234104	1776.504395
2334.310251	0.097035	0.234104	1866.358765
2334.311162	0.097148	0.234104	1954.860962
2334.312060	0.097024	0.234104	2041.988403
2334.312951	0.097009	0.234104	2128.423584
2335.302352	1.406257	0.273762	620.159485
2335.303251	0.757727	0.273762	1301.356079
2335.304219	0.097738	0.273762	1395.966553
2335.305130	0.096965	0.273762	1484.302002
2335.306028	0.096965	0.273762	1571.376831
2335.306948	0.097097	0.273762	1660.706177
2335.307850	0.097017	0.273762	1748.215088
2335.308751	0.096984	0.273762	1835.597412
2335.309640	0.096991	0.273762	1921.822388
2335.310586	0.097035	0.273762	2013.617432
2335.311485	0.097072	0.273762	2100.884766
2335.312394	0.097002	0.273762	2189.059570
2336.312781	1.396395	0.246579	615.810364
2336.313749	0.643022	0.246579	1238.256104
2336.314661	0.097606	0.246579	1327.272949
2336.315560	0.097002	0.246579	1414.477661
2336.316451	0.097141	0.246579	1501.030396
2336.317405	0.097134	0.246579	1593.696045
2336.318316	0.096987	0.246579	1682.051514
2336.319218	0.097101	0.246579	1769.636475
2336.320154	0.097057	0.246579	1860.481689
2336.321060	0.097083	0.246579	1948.438477
2336.321960	0.097061	0.246579	2035.792969
2336.322851	0.097072	0.246579	2122.283691
2337.317065	1.400017	0.273110	614.607544
2337.318028	0.730642	0.273110	1318.215820
2337.318925	0.097566	0.273110	1405.732422
2337.319844	0.097009	0.273110	1494.883911
2337.320747	0.097006	0.273110	1582.479980
2337.321694	0.096991	0.273110	1674.330444
2337.322602	0.097031	0.273110	1762.434814
2337.323491	0.097057	0.273110	1848.718384
2337.324440	0.097104	0.273110	1940.870605
2337.325347	0.097024	0.273110	2028.871338
2337.326266	0.097086	0.273110	2118.093506
2337.327157	0.097006	0.273110	2204.525391
2338.324447	1.426143	0.246547	643.190308
2338.325353	0.735267	0.246547	1309.342529
2338.326238	0.098342	0.246547	1396.375488
2338.327174	0.097024	0.246547	1487.189941
2338.328084	0.097009	0.246547	1575.468384
2338.328987	0.097042	0.246547	1663.097534
2338.329877	0.097039	0.246547	1749.461914
2338.330832	0.097046	0.246547	1842.140747
2338.331740	0.097053	0.246547	1930.265137
2338.332627	0.097068	0.246547	2016.364380
2338.333539	0.097028	0.246547	2104.853516
2338.334448	0.097017	0.246547	2193.041504
2339.332293	1.390441	0.270278	602.060852
2339.333243	0.716587	0.270278	1282.818481
2339.334159	0.097760	0.270278	1372.366699
2339.335061	0.097031	0.270278	1459.888916
2339.335949	0.096987	0.270278	1546.013672
2339.336895	0.097057	0.270278	1637.829468
2339.337804	0.097079	0.270278	1726.074097
2339.338696	0.097061	0.270278	1812.652100
2339.339605	0.097101	0.270278	1900.916748
2339.340516	0.097130	0.270278	1989.402344
2339.341427	0.097017	0.270278	2077.784424
2339.342323	0.096998	0.270278	2164.694824
2340.337113	1.423696	0.248287	636.392212
2340.338039	0.719648	0.248287	1302.786621
2340.338935	0.098053	0.248287	1390.642090
2340.339875	0.097020	0.248287	1481.841187
2340.340776	0.097072	0.248287	1569.302612
2340.341676	0.096987	0.248287	1656.591187
2340.342570	0.096943	0.248287	1743.258545
2340.343519	0.097035	0.248287	1835.344727
2340.344429	0.097075	0.248287	1923.683105
2340.345324	0.097094	0.248287	2010.581787
2340.346252	0.097039	0.248287	2100.633545
2340.347162	0.097134	0.248287	2189.025391
2341.345992	1.414318	0.268030	620.885437
2341.346974	0.620050	0.268030	1229.774658
2341.347887	0.097445	0.268030	1318.741943
2341.348787	0.096995	0.268030	1406.037109
2341.349710	0.097104	0.268030	1495.664551
2341.350616	0.097079	0.268030	1583.618042
2341.351524	0.097020	0.268030	1671.712402
2341.352411	0.097013	0.268030	1757.762939
2341.353358	0.097079	0.268030	1849.696655
2341.354265	0.097002	0.268030	1937.677490
2341.355152	0.097101	0.268030	2023.805908
2341.356066	0.097020	0.268030	2112.482422
2342.350033	1.405496	0.253597	618.418091
2342.350954	0.750608	0.253597	1309.728027
2342.351849	0.098313	0.253597	1397.718140
2342.352776	0.097072	0.253597	1487.703491
2342.353677	0.097039	0.253597	1575.135254
2342.354585	0.096984	0.253597	1663.196411
2342.355478	0.097050	0.253597	1749.861694
2342.356419	0.097064	0.253597	1841.199097
2342.357326	0.097090	0.253597	1929.259521
2342.358231	0.096987	0.253597	2017.033081
2342.359147	0.097086	0.253597	2105.964111
2342.360040	0.097024	0.253597	2192.606445
2343.359431	1.396571	0.274089	607.508423
2343.360378	0.709592	0.274089	1279.492310
2343.361293	0.097701	0.274089	1368.889160
2343.362215	0.096995	0.274089	1458.318237
2343.363103	0.096998	0.274089	1544.452759
2343.364057	0.097035	0.274089	1637.024048
2343.364958	0.096998	0.274089	1724.419556
2343.365849	0.097108	0.274089	1810.942871
2343.366754	0.097104	0.274089	1898.822388
2343.367672	0.096962	0.274089	1987.833252
2343.368575	0.096962	0.274089	2075.389648
2343.369467	0.097039	0.274089	2161.947998
2344.363014	1.420690	0.252932	707.503479
2344.363937	0.645018	0.252932	1302.855469
2344.364834	0.097504	0.252932	1390.316284
2344.365723	0.096947	0.252932	1476.502197
2344.366663	0.097075	0.252932	1567.752930
2344.367579	0.096998	0.252932	1656.603394
2344.368479	0.097083	0.252932	1743.977661
2344.369367	0.097035	0.252932	1830.144653
2344.370315	0.097097	0.252932	1922.192749
2344.371217	0.097002	0.252932	2009.688477
2344.372106	0.097061	0.252932	2095.975342
2344.373051	0.097024	0.252932	2187.662842
2345.373171	1.465964	0.271873	694.867065
2345.374107	0.641356	0.271873	1295.176514
2345.375004	0.097614	0.271873	1382.735840
2345.375935	0.097050	0.271873	1473.088989
2345.376842	0.097035	0.271873	1561.099609
2345.377745	0.097057	0.271873	1648.741943
2345.378633	0.097024	0.271873	1734.899170
2345.379574	0.097108	0.271873	1826.277954
2345.380479	0.097061	0.271873	1914.117798
2345.381377	0.097061	0.271873	2001.278198
2345.382263	0.097042	0.271873	2087.257568
2345.383191	0.097101	0.271873	2177.367187
2346.376410	1.425527	0.254874	632.934143
2346.377345	0.696687	0.254874	1284.336426
2346.378241	0.098031	0.254874	1372.172241
2346.379172	0.097068	0.254874	1462.542480
2346.380082	0.097222	0.254874	1551.014160
2346.380981	0.097072	0.254874	1638.281494
2346.381867	0.097086	0.254874	1724.299805
2346.382818	0.097079	0.254874	1816.621826
2346.383720	0.097031	0.254874	1904.144043
2346.384620	0.097097	0.254874	1991.531494
2346.385509	0.097101	0.254874	2077.854248
2346.386449	0.097163	0.254874	2169.187500
2347.385873	1.482404	0.273666	754.543457
2347.386800	0.601992	0.273666	1312.590210
2347.387696	0.097456	0.273666	1399.910889
2347.388590	0.096991	0.273666	1486.620850
2347.389532	0.097170	0.273666	1578.155396
2347.390442	0.097057	0.273666	1666.477173
2347.391334	0.097061	0.273666	1753.055176
2347.392261	0.097031	0.273666	1843.003174
2347.393164	0.097090	0.273666	1930.675293
2347.394070	0.097068	0.273666	2018.618774
2347.394967	0.097020	0.273666	2105.645996
2347.395911	0.097192	0.273666	2197.395508
2348.389839	1.408601	0.253504	621.193054
2348.390741	0.775649	0.253504	1320.828857
2348.391627	0.098708	0.253504	1408.284546
2348.392591	0.097053	0.253504	1501.843872
2348.393495	0.097075	0.253504	1589.599854
2348.394399	0.097108	0.253504	1677.385620
2348.395286	0.097086	0.253504	1763.501099
2348.396225	0.097145	0.253504	1854.720093
2348.397133	0.097053	0.253504	1942.844482
2348.398025	0.097068	0.253504	2029.429077
2348.398955	0.097104	0.253504	2119.736328
2348.399863	0.097083	0.253504	2207.887207
2349.398473	1.408378	0.270979	618.277771
2349.399461	0.631736	0.270979	1242.432739
2349.400375	0.097537	0.270979	1331.581177
2349.401264	0.097024	0.270979	1417.835449
2349.402200	0.097152	0.270979	1508.769775
2349.403108	0.097079	0.270979	1596.917358
2349.404010	0.096965	0.270979	1684.380127
2349.404907	0.097057	0.270979	1771.440186
2349.405860	0.097134	0.270979	1864.008667
2349.406750	0.097028	0.270979	1950.363281
2349.407651	0.097046	0.270979	2037.801636
2349.408540	0.097035	0.270979	2124.065674
2350.404043	1.403511	0.252195	618.948242
2350.404939	0.772753	0.252195	1311.334717
2350.405908	0.097771	0.252195	1406.074829
2350.406809	0.097035	0.252195	1493.503296
2350.407705	0.097094	0.252195	1580.499023
2350.408640	0.097079	0.252195	1671.267700
2350.409548	0.097112	0.252195	1759.445190
2350.410447	0.097046	0.252195	1846.689453
2350.411333	0.097094	0.252195	1932.714355
2350.412262	0.097086	0.252195	2022.907471
2350.413175	0.097017	0.252195	2111.483643
2350.414077	0.097083	0.252195	2199.052002
2351.410147	1.435554	0.276256	654.612732
2351.411055	0.727566	0.276256	1315.242676
2351.411982	0.097936	0.276256	1406.029175
2351.412867	0.096954	0.276256	1491.833740
2351.413812	0.097086	0.276256	1583.580200
2351.414733	0.097006	0.276256	1672.922363
2351.415628	0.097072	0.276256	1759.801392
2351.416553	0.097028	0.276256	1849.551880
2351.417470	0.097035	0.276256	1938.532837
2351.418388	0.097046	0.276256	2027.620972
2351.419279	0.097050	0.276256	2114.092041
2351.420264	0.097017	0.276256	2209.653320
2352.417507	1.411798	0.253798	655.074341
2352.418416	0.720059	0.253798	1309.607544
2352.419354	0.098258	0.253798	1401.773560
2352.420267	0.096925	0.253798	1490.266113
2352.421186	0.097042	0.253798	1579.447876
2352.422073	0.097097	0.253798	1665.572998
2352.423007	0.097031	0.253798	1756.200195
2352.423910	0.097108	0.253798	1843.888916
2352.424826	0.097068	0.253798	1932.803101
2352.425715	0.097053	0.253798	2019.083374
2352.426674	0.097035	0.253798	2112.139893
2352.427579	0.097086	0.253798	2200.002930
2353.421517	1.397802	0.279813	615.032654
2353.422495	0.644733	0.279813	1245.581177
2353.423410	0.097555	0.279813	1334.843994
2353.424306	0.097006	0.279813	1421.760986
2353.425197	0.097031	0.279813	1508.215820
2353.426145	0.097086	0.279813	1600.253540
2353.427046	0.097042	0.279813	1687.688599
2353.427940	0.097068	0.279813	1774.467285
2353.428865	0.097145	0.279813	1864.326172
2353.429765	0.097101	0.279813	1951.716919
2353.430659	0.097017	0.279813	2038.449707
2353.431548	0.097068	0.279813	2124.743164
2354.432465	1.412769	0.250285	625.856506
2354.433373	0.764403	0.250285	1319.934448
2354.434258	0.098540	0.250285	1407.142334
2354.435199	0.097086	0.250285	1498.500488
2354.436096	0.097097	0.250285	1585.596680
2354.436993	0.097068	0.250285	1672.666504
2354.437881	0.097046	0.250285	1758.843262
2354.438829	0.097079	0.250285	1850.874023
2354.439732	0.097046	0.250285	1938.506470
2354.440628	0.097020	0.250285	2025.436646
2354.441560	0.097083	0.250285	2115.917480
2354.442469	0.097101	0.250285	2204.182129
2355.431414	1.417841	0.280099	681.981323
2355.432346	0.632974	0.280099	1271.912720
2355.433254	0.097636	0.280099	1360.565796
2355.434144	0.097006	0.280099	1446.900757
2355.435083	0.097141	0.280099	1538.116211
2355.435993	0.097090	0.280099	1626.468018
2355.436888	0.097079	0.280099	1713.353638
2355.437777	0.097112	0.280099	1799.686035
2355.438702	0.097152	0.280099	1889.551758
2355.439612	0.096973	0.280099	1977.796875
2355.440510	0.097050	0.280099	2064.947266
2355.441440	0.097119	0.280099	2155.268066
2356.447688	1.404770	0.246591	616.694275
2356.448676	0.607533	0.246591	1216.936768
2356.449582	0.097416	0.246591	1305.195435
2356.450477	0.097042	0.246591	1392.048218
2356.451419	0.097167	0.246591	1483.579346
2356.452315	0.097141	0.246591	1570.617798
2356.453211	0.097017	0.246591	1657.544678
2356.454103	0.097072	0.246591	1744.132446
2356.455036	0.097097	0.246591	1834.724121
2356.455937	0.097152	0.246591	1922.258179
2356.456840	0.097046	0.246591	2009.890625
2356.457727	0.097035	0.246591	2095.960693
2357.442289	1.444160	0.278334	685.976135
2357.443208	0.676835	0.278334	1307.987305
2357.444129	0.097592	0.278334	1397.869141
2357.445027	0.096987	0.278334	1484.963745
2357.445989	0.097009	0.278334	1578.286621
2357.446903	0.097031	0.278334	1666.973145
2357.447805	0.097020	0.278334	1754.485474
2357.448719	0.097024	0.278334	1843.165283
2357.449635	0.096998	0.278334	1932.015747
2357.450530	0.097042	0.278334	2018.868530
2357.451413	0.097042	0.278334	2104.556885
2357.452345	0.097042	0.278334	2195.000244
2358.462679	1.414958	0.250366	636.731323
2358.463580	0.755837	0.250366	1317.740723
2358.464522	0.098503	0.250366	1410.531006
2358.465426	0.097057	0.250366	1498.270386
2358.466330	0.097057	0.250366	1586.009766
2358.467218	0.097046	0.250366	1672.186523
2358.468193	0.097130	0.250366	1766.888428
2358.469093	0.097053	0.250366	1854.236328
2358.469995	0.097035	0.250366	1941.761841
2358.470882	0.097072	0.250366	2027.864258
2358.471823	0.097094	0.250366	2119.229248
2358.472729	0.096980	0.250366	2207.093018
2359.452880	1.405195	0.283164	623.906738
2359.453777	0.771870	0.283164	1316.274170
2359.454719	0.098005	0.283164	1408.595215
2359.455637	0.097178	0.283164	1497.804321
2359.456540	0.097123	0.283164	1585.506226
2359.457428	0.097123	0.283164	1671.751221
2359.458387	0.097218	0.283164	1764.983276
2359.459293	0.097112	0.283164	1852.966553
2359.460188	0.097126	0.283164	1939.894775
2359.461129	0.097137	0.283164	2031.301147
2359.462028	0.097148	0.283164	2118.637695
2359.462931	0.097072	0.283164	2206.293213
2360.478173	1.427523	0.247913	639.530396
2360.479098	0.726709	0.247913	1311.736206
2360.479995	0.098163	0.247913	1399.788330
2360.480918	0.097072	0.247913	1489.385376
2360.481832	0.097211	0.247913	1578.235962
2360.482747	0.097090	0.247913	1667.073120
2360.483637	0.097134	0.247913	1753.522217
2360.484583	0.097112	0.247913	1845.390015
2360.485495	0.097101	0.247913	1933.945923
2360.486389	0.097156	0.247913	2020.803223
2360.487278	0.097163	0.247913	2107.181152
2360.488207	0.097240	0.247913	2197.517090
2361.464801	1.426948	0.284228	643.553650
2361.465732	0.710958	0.284228	1305.455811
2361.466626	0.098013	0.284228	1393.079102
2361.467559	0.096969	0.284228	1483.551147
2361.468467	0.097112	0.284228	1571.728638
2361.469366	0.097064	0.284228	1658.989380
2361.470256	0.097072	0.284228	1745.383057
2361.471186	0.097050	0.284228	1835.639160
2361.472089	0.097101	0.284228	1923.321167
2361.472990	0.097020	0.284228	2010.736450
2361.473879	0.097064	0.284228	2097.026611
2361.474817	0.097046	0.284228	2188.055664
2362.492888	1.424103	0.247945	642.270386
2362.493826	0.682419	0.247945	1282.379883
2362.494722	0.097921	0.247945	1370.117187
2362.495688	0.097024	0.247945	1463.842285
2362.496590	0.096980	0.247945	1551.318237
2362.497480	0.097086	0.247945	1637.724976
2362.498401	0.097024	0.247945	1727.083984
2362.499315	0.097028	0.247945	1815.767212
2362.500226	0.097039	0.247945	1904.169312
2362.501115	0.097028	0.247945	1990.426880
2362.502053	0.097028	0.247945	2081.438721
2362.502949	0.096980	0.247945	2168.332764
2363.478502	1.436825	0.281646	650.881714
2363.479411	0.730089	0.281646	1314.532715
2363.480299	0.098185	0.281646	1401.720825
2363.481258	0.097013	0.281646	1494.756226
2363.482169	0.096995	0.281646	1583.118286
2363.483064	0.096965	0.281646	1669.902222
2363.483954	0.097020	0.281646	1756.250244
2363.484896	0.097009	0.281646	1847.632935
2363.485798	0.096980	0.281646	1935.108887
2363.486719	0.096991	0.281646	2024.437622
2363.487609	0.096984	0.281646	2110.753174
2363.488551	0.097035	0.281646	2202.160156
2364.505296	1.400962	0.261875	615.022278
2364.506197	0.777546	0.261875	1315.591553
2364.507119	0.098741	0.261875	1406.631226
2364.508048	0.097039	0.261875	1496.780029
2364.508957	0.097061	0.261875	1585.008057
2364.509847	0.097035	0.261875	1671.369141
2364.510791	0.097167	0.261875	1763.094604
2364.511693	0.097090	0.261875	1850.669678
2364.512591	0.097090	0.261875	1937.856323
2364.513479	0.097097	0.261875	2024.078613
2364.514413	0.097097	0.261875	2114.767334
2364.515324	0.097064	0.261875	2203.192871
2365.492429	1.398281	0.285879	611.048950
2365.493327	0.787797	0.285879	1318.490356
2365.494282	0.097928	0.285879	1412.012085
2365.495194	0.097009	0.285879	1500.484497
2365.496089	0.097079	0.285879	1587.370117
2365.497001	0.097090	0.285879	1675.916016
2365.497923	0.097101	0.285879	1765.442993
2365.498832	0.097020	0.285879	1853.634399
2365.499723	0.097013	0.285879	1940.072876
2365.500650	0.097134	0.285879	2030.115845
2365.501558	0.097152	0.285879	2118.329834
2365.502459	0.097097	0.285879	2205.814453
2366.515916	1.399332	0.269831	610.108887
2366.516813	0.772061	0.269831	1302.647217
2366.517770	0.097892	0.269831	1396.329712
2366.518685	0.096951	0.269831	1485.039551
2366.519584	0.097057	0.269831	1572.293701
2366.520518	0.097167	0.269831	1663.047485
2366.521415	0.097072	0.269831	1750.120605
2366.522310	0.097046	0.269831	1836.976685
2366.523198	0.097079	0.269831	1923.182739
2366.524134	0.097196	0.269831	2014.158203
2366.525035	0.097112	0.269831	2101.656006
2366.525936	0.097075	0.269831	2189.120850
2367.508177	1.415834	0.283938	630.046082
2367.509076	0.770361	0.283938	1322.600830
2367.509963	0.098661	0.283938	1410.113037
2367.510927	0.097024	0.283938	1503.644043
2367.511841	0.097061	0.283938	1592.357422
2367.512736	0.097031	0.283938	1679.200439
2367.513666	0.097072	0.283938	1769.476929
2367.514566	0.097141	0.283938	1856.903931
2367.515468	0.096984	0.283938	1944.383179
2367.516358	0.097017	0.283938	2030.727905
2367.517294	0.097086	0.283938	2121.600586
2367.518204	0.097094	0.283938	2209.955566
2368.525517	1.393579	0.276671	608.994080
2368.526408	0.794509	0.276671	1316.901855
2368.527346	0.098086	0.276671	1408.906494
2368.528267	0.096980	0.276671	1498.225098
2368.529167	0.097061	0.276671	1585.579590
2368.530090	0.097061	0.276671	1675.166504
2368.531009	0.097086	0.276671	1764.388672
2368.531917	0.096965	0.276671	1852.433228
2368.532810	0.097072	0.276671	1939.118164
2368.533728	0.096995	0.276671	2028.159180
2368.534623	0.096973	0.276671	2114.949707
2368.535572	0.096973	0.276671	2206.976807
2369.523402	1.392495	0.281521	605.735352
2369.524344	0.747854	0.281521	1310.213867
2369.525257	0.097892	0.281521	1399.589111
2369.526178	0.097009	0.281521	1488.934692
2369.527066	0.097017	0.281521	1575.085449
2369.528009	0.097050	0.281521	1666.603149
2369.528913	0.097061	0.281521	1754.345947
2369.529821	0.096973	0.281521	1842.397095
2369.530717	0.097086	0.281521	1929.386353
2369.531670	0.097042	0.281521	2021.867554
2369.532568	0.097028	0.281521	2108.998291
2369.533458	0.097072	0.281521	2195.391846
2370.535128	1.426102	0.275946	637.467712
2370.536031	0.752164	0.275946	1316.672119
2370.536975	0.097958	0.275946	1409.144287
2370.537887	0.097068	0.275946	1497.670166
2370.538789	0.097006	0.275946	1585.169189
2370.539678	0.096995	0.275946	1671.397461
2370.540644	0.097137	0.275946	1765.232178
2370.541547	0.097035	0.275946	1852.854736
2370.542438	0.097002	0.275946	1939.283447
2370.543386	0.097079	0.275946	2031.314209
2370.544284	0.097108	0.275946	2118.517334
2370.545176	0.097013	0.275946	2205.052979
2371.538649	1.410359	0.280276	634.661499
2371.539541	0.760770	0.280276	1313.268555
2371.540486	0.097866	0.280276	1405.752075
2371.541398	0.097024	0.280276	1494.237915
2371.542291	0.097046	0.280276	1580.899902
2371.543219	0.097094	0.280276	1671.002686
2371.544125	0.097094	0.280276	1758.969360
2371.545027	0.096987	0.280276	1846.451904
2371.545913	0.097108	0.280276	1932.489746
2371.546861	0.097086	0.280276	2024.527466
2371.547761	0.097101	0.280276	2111.918213
2371.548662	0.097020	0.280276	2199.333496
2372.546272	1.414186	0.272356	651.939636
2372.547226	0.633530	0.272356	1256.327637
2372.548134	0.097625	0.272356	1344.970703
2372.549027	0.096998	0.272356	1431.590210
2372.549961	0.097101	0.272356	1522.282349
2372.550863	0.097072	0.272356	1609.840820
2372.551758	0.097009	0.272356	1696.664062
2372.552650	0.097083	0.272356	1783.261719
2372.553586	0.097130	0.272356	1874.175537
2372.554491	0.097097	0.272356	1962.048462
2372.555388	0.097126	0.272356	2049.170898
2372.556295	0.097072	0.272356	2137.214844
2373.553404	1.466008	0.276993	700.751953
2373.554326	0.664222	0.276993	1313.165039
2373.555223	0.097764	0.276993	1400.859009
2373.556115	0.096954	0.276993	1487.342285
2373.557062	0.097104	0.276993	1579.300293
2373.557974	0.097028	0.276993	1667.789429
2373.558870	0.097042	0.276993	1754.739258
2373.559798	0.097145	0.276993	1844.889648
2373.560704	0.097101	0.276993	1932.863037
2373.561601	0.097072	0.276993	2019.936157
2373.562489	0.097017	0.276993	2106.086914
2373.563436	0.097068	0.276993	2198.010254
2374.557666	1.425762	0.272441	645.870056
2374.558573	0.741665	0.272441	1318.560303
2374.559464	0.098306	0.272441	1406.150635
2374.560401	0.096991	0.272441	1497.031128
2374.561319	0.097046	0.272441	1586.119263
2374.562227	0.097006	0.272441	1674.200317
2374.563114	0.097061	0.272441	1760.292969
2374.564057	0.097042	0.272441	1851.803833
2374.564972	0.096973	0.272441	1940.533813
2374.565897	0.097064	0.272441	2030.318237
2374.566783	0.097013	0.272441	2116.271729
2374.567735	0.097094	0.272441	2208.704834
2375.568341	1.420357	0.276228	636.319702
2375.569243	0.755522	0.276228	1317.801025
2375.570192	0.098020	0.276228	1410.822021
2375.571101	0.096951	0.276228	1498.950195
2375.572000	0.097097	0.276228	1586.240601
2375.572887	0.097075	0.276228	1672.346313
2375.573832	0.097196	0.276228	1764.196533
2375.574727	0.097035	0.276228	1851.042725
2375.575615	0.097020	0.276228	1937.196777
2375.576544	0.097112	0.276228	2027.413696
2375.577460	0.097090	0.276228	2116.347900
2375.578370	0.097104	0.276228	2204.712891
2376.570835	1.408978	0.270076	626.995300
2376.571736	0.761305	0.270076	1312.931030
2376.572675	0.098610	0.270076	1405.525513
2376.573588	0.097028	0.270076	1494.111694
2376.574485	0.097017	0.270076	1581.135620
2376.575375	0.097042	0.270076	1667.503174
2376.576328	0.097090	0.270076	1760.029785
2376.577223	0.097101	0.270076	1846.935059
2376.578124	0.097130	0.270076	1934.449341
2376.579008	0.097017	0.270076	2020.212036
2376.579954	0.097075	0.270076	2112.045166
2376.580853	0.097042	0.270076	2199.286133
2377.581771	1.403163	0.277194	614.585327
2377.582708	0.728961	0.277194	1297.621948
2377.583613	0.098057	0.277194	1386.363159
2377.584511	0.096987	0.277194	1473.457764
2377.585398	0.097064	0.277194	1559.553711
2377.586348	0.097115	0.277194	1651.813477
2377.587245	0.097072	0.277194	1738.886597
2377.588148	0.097053	0.277194	1826.525635
2377.589044	0.097101	0.277194	1913.527954
2377.589985	0.097097	0.277194	2004.896362
2377.590894	0.097061	0.277194	2093.124512
2377.591787	0.097024	0.277194	2179.766846
2378.584521	1.399614	0.268050	615.830261
2378.585415	0.779216	0.268050	1312.449707
2378.586388	0.097614	0.268050	1407.427612
2378.587301	0.097009	0.268050	1495.997070
2378.588198	0.097013	0.268050	1583.017700
2378.589133	0.097086	0.268050	1673.793213
2378.590038	0.097159	0.268050	1761.722534
2378.590941	0.097006	0.268050	1849.318604
2378.591831	0.096980	0.268050	1935.630737
2378.592770	0.097042	0.268050	2026.753418
2378.593683	0.096958	0.268050	2115.276123
2378.594580	0.097046	0.268050	2202.326172
2379.595466	1.400288	0.275579	614.726501
2379.596357	0.775906	0.275579	1306.058594
2379.597325	0.097778	0.275579	1400.708008
2379.598225	0.096947	0.275579	1487.960327
2379.599115	0.097039	0.275579	1574.324707
2379.600062	0.097126	0.275579	1666.303467
2379.600972	0.097075	0.275579	1754.641846
2379.601891	0.097079	0.275579	1843.857300
2379.602778	0.097061	0.275579	1929.949951
2379.603725	0.097039	0.275579	2021.845459
2379.604633	0.097017	0.275579	2109.936523
2379.605524	0.097039	0.275579	2196.397949
2380.597967	1.407023	0.265412	623.311035
2380.598861	0.779330	0.265412	1320.031982
2380.599820	0.097775	0.265412	1413.797852
2380.600741	0.096954	0.265412	1503.092773
2380.601638	0.097061	0.265412	1590.156128
2380.602574	0.097050	0.265412	1680.994507
2380.603483	0.097097	0.265412	1769.255859
2380.604389	0.097013	0.265412	1857.149536
2380.605280	0.097039	0.265412	1943.610962
2380.606217	0.097163	0.265412	2034.652832
2380.607120	0.097039	0.265412	2122.278564
2380.608008	0.097017	0.265412	2208.429199
2381.608958	1.444211	0.277215	711.996277
2381.609883	0.624375	0.277215	1289.543213
2381.610792	0.097566	0.277215	1378.230591
2381.611685	0.097024	0.277215	1464.872925
2381.612645	0.097123	0.277215	1558.110840
2381.613550	0.097115	0.277215	1646.000366
2381.614452	0.097141	0.277215	1733.621704
2381.615352	0.097115	0.277215	1821.025635
2381.616277	0.097163	0.277215	1910.901489
2381.617181	0.097039	0.277215	1998.624390
2381.618080	0.097031	0.277215	2085.855469
2381.619014	0.097090	0.277215	2176.537354
2382.611668	1.404899	0.264554	625.179932
2382.612609	0.682408	0.264554	1267.326294
2382.613522	0.097793	0.264554	1356.611328
2382.614420	0.097079	0.264554	1443.788086
2382.615342	0.097178	0.264554	1533.385986
2382.616250	0.097134	0.264554	1621.583496
2382.617160	0.097119	0.264554	1709.961914
2382.618057	0.097046	0.264554	1797.012085
2382.618991	0.097152	0.264554	1887.752197
2382.619886	0.097057	0.264554	1974.618164
2382.620786	0.097134	0.264554	2062.038574
2382.621672	0.097006	0.264554	2147.985596
2383.622382	1.446998	0.277009	669.960266
2383.623304	0.684305	0.277009	1300.889893
2383.624208	0.097811	0.277009	1389.311279
2383.625099	0.096987	0.277009	1475.726929
2383.626043	0.097141	0.277009	1567.428101
2383.626946	0.096987	0.277009	1655.007568
2383.627845	0.097009	0.277009	1742.218872
2383.628777	0.097072	0.277009	1832.689575
2383.629684	0.097119	0.277009	1920.776611
2383.630584	0.097101	0.277009	2008.167358
2383.631470	0.097002	0.277009	2094.111084
2383.632426	0.097061	0.277009	2186.900879
2384.625136	1.415028	0.265915	676.383362
2384.626085	0.603321	0.265915	1248.935547
2384.626992	0.097478	0.265915	1337.348145
2384.627889	0.097002	0.265915	1424.358887
2384.628815	0.097174	0.265915	1514.342041
2384.629727	0.097079	0.265915	1602.877930
2384.630627	0.097090	0.265915	1690.258789
2384.631514	0.097108	0.265915	1776.393677
2384.632456	0.097163	0.265915	1867.921265
2384.633358	0.097115	0.265915	1955.519409
2384.634250	0.097148	0.265915	2042.175781
2384.635178	0.097163	0.265915	2132.343018
2385.636075	1.417035	0.281944	666.006409
2385.636997	0.689864	0.281944	1302.061523
2385.637914	0.097694	0.281944	1391.646973
2385.638803	0.097013	0.281944	1477.891479
2385.639760	0.097119	0.281944	1570.834473
2385.640659	0.097006	0.281944	1658.042480
2385.641571	0.097072	0.281944	1746.571777
2385.642468	0.097090	0.281944	1833.661377
2385.643419	0.097068	0.281944	1925.972900
2385.644314	0.097112	0.281944	2012.887939
2385.645201	0.097009	0.281944	2098.935059
2385.646148	0.097090	0.281944	2190.879150
2386.639310	1.405030	0.265847	616.808411
2386.640221	0.768179	0.265847	1316.619141
2386.641112	0.098511	0.265847	1404.392212
2386.642036	0.097009	0.265847	1494.028809
2386.642948	0.097090	0.265847	1582.574707
2386.643850	0.097046	0.265847	1670.110107
2386.644735	0.097046	0.265847	1755.995728
2386.645664	0.097123	0.265847	1846.222778
2386.646581	0.097013	0.265847	1935.183594
2386.647482	0.097053	0.265847	2022.628540
2386.648367	0.097072	0.265847	2108.536865
2386.649307	0.097152	0.265847	2199.859863
2387.649747	1.413406	0.276199	634.619141
2387.650654	0.739720	0.276199	1305.545654
2387.651590	0.098254	0.276199	1397.511719
2387.652498	0.097079	0.276199	1485.659302
2387.653392	0.097046	0.276199	1572.418335
2387.654280	0.097009	0.276199	1658.562622
2387.655217	0.097046	0.276199	1749.494629
2387.656112	0.097031	0.276199	1836.337646
2387.657013	0.097028	0.276199	1923.759521
2387.657900	0.097068	0.276199	2009.858765
2387.658848	0.097126	0.276199	2101.934570
2387.659759	0.097009	0.276199	2190.310059
2388.652763	1.421869	0.268107	634.153564
2388.653665	0.758357	0.268107	1318.191528
2388.654551	0.098558	0.268107	1405.514160
2388.655505	0.096958	0.268107	1498.012085
2388.656409	0.096962	0.268107	1585.665405
2388.657298	0.096969	0.268107	1671.870850
2388.658228	0.097002	0.268107	1762.082642
2388.659137	0.097094	0.268107	1850.340576
2388.660036	0.096998	0.268107	1937.541992
2388.660932	0.097017	0.268107	2024.468872
2388.661879	0.097020	0.268107	2116.347168
2388.662782	0.097061	0.268107	2203.992920
2389.663189	1.415962	0.275055	637.182861
2389.664079	0.767032	0.275055	1319.841797
2389.665040	0.098002	0.275055	1414.021484
2389.665940	0.097057	0.275055	1501.372681
2389.666841	0.097072	0.275055	1588.834106
2389.667724	0.096987	0.275055	1674.473877
2389.668662	0.097115	0.275055	1765.568237
2389.669573	0.097031	0.275055	1853.963745
2389.670467	0.097108	0.275055	1940.778442
2389.671404	0.097042	0.275055	2031.707031
2389.672308	0.097086	0.275055	2119.472900
2389.673201	0.097046	0.275055	2206.134766
2390.667216	1.406320	0.264682	622.999573
2390.668174	0.685181	0.264682	1279.402588
2390.669091	0.097712	0.264682	1369.004883
2390.669984	0.096980	0.264682	1455.608032
2390.670872	0.097009	0.264682	1541.752319
2390.671811	0.097061	0.264682	1632.892212
2390.672719	0.097061	0.264682	1721.023193
2390.673612	0.097079	0.264682	1807.714600
2390.674533	0.097137	0.264682	1897.178223
2390.675446	0.097141	0.264682	1985.868042
2390.676360	0.097083	0.264682	2074.601562
2390.677252	0.097119	0.264682	2161.231934
2391.676126	1.431965	0.266870	645.816345
2391.677038	0.721571	0.266870	1303.889160
2391.677976	0.098214	0.266870	1396.014038
2391.678884	0.097101	0.266870	1484.181641
2391.679792	0.097072	0.266870	1572.322632
2391.680678	0.096984	0.266870	1658.250122
2391.681628	0.097167	0.266870	1750.558594
2391.682528	0.097090	0.266870	1837.939453
2391.683426	0.097020	0.266870	1925.063599
2391.684319	0.097083	0.266870	2011.758301
2391.685256	0.097061	0.266870	2102.704102
2391.686157	0.096980	0.266870	2190.083008
2392.680946	1.462676	0.264139	694.770996
2392.681846	0.706326	0.264139	1330.464111
2392.682796	0.097819	0.264139	1423.391846
2392.683717	0.097009	0.264139	1512.737427
2392.684603	0.097053	0.264139	1598.726562
2392.685536	0.097112	0.264139	1689.331909
2392.686449	0.097028	0.264139	1777.918091
2392.687361	0.097035	0.264139	1866.413940
2392.688263	0.097064	0.264139	1953.965820
2392.689228	0.097028	0.264139	2047.597412
2392.690129	0.097046	0.264139	2135.035645
2392.691019	0.097046	0.264139	2221.406494
2393.688845	1.486165	0.269186	746.054626
2393.689752	0.637335	0.269186	1324.117676
2393.690669	0.097482	0.269186	1413.508423
2393.691571	0.097031	0.269186	1501.030640
2393.692527	0.096984	0.269186	1593.746948
2393.693434	0.097002	0.269186	1681.727783
2393.694324	0.097020	0.269186	1768.075806
2393.695262	0.097156	0.269186	1859.207886
2393.696166	0.097053	0.269186	1946.943970
2393.697081	0.097035	0.269186	2035.730957
2393.697971	0.097123	0.269186	2122.170166
2393.698911	0.097042	0.269186	2213.389893
2394.695896	1.416588	0.259627	633.214905
2394.696800	0.752421	0.259627	1313.403198
2394.697691	0.098448	0.259627	1401.120850
2394.698629	0.097017	0.259627	1492.122437
2394.699544	0.097053	0.259627	1580.926147
2394.700460	0.096998	0.259627	1669.776611
2394.701349	0.097024	0.259627	1756.030884
2394.702294	0.097006	0.259627	1847.701172
2394.703191	0.097050	0.259627	1934.754639
2394.704076	0.097046	0.259627	2020.640259
2394.704993	0.097086	0.259627	2109.668213
2394.705917	0.097079	0.259627	2199.369141
2395.699926	1.406261	0.272240	627.192383
2395.700824	0.763319	0.272240	1312.652832
2395.701766	0.098500	0.272240	1405.439575
2395.702676	0.097006	0.272240	1493.714722
2395.703569	0.097006	0.272240	1580.340698
2395.704497	0.096995	0.272240	1670.351685
2395.705408	0.097057	0.272240	1758.770508
2395.706317	0.097017	0.272240	1846.958618
2395.707208	0.097097	0.272240	1933.472168
2395.708141	0.097083	0.272240	2024.050171
2395.709055	0.096984	0.272240	2112.693115
2395.709953	0.097046	0.272240	2199.840332
2396.710341	1.395187	0.257335	608.301453
2396.711234	0.781315	0.257335	1306.015381
2396.712219	0.097592	0.257335	1402.143066
2396.713124	0.097039	0.257335	1489.963013
2396.714012	0.097053	0.257335	1576.146240
2396.714964	0.097083	0.257335	1668.568848
2396.715872	0.097009	0.257335	1756.653320
2396.716794	0.096976	0.257335	1846.065430
2396.717685	0.097053	0.257335	1932.539795
2396.718625	0.097068	0.257335	2023.783569
2396.719533	0.096976	0.257335	2111.838135
2396.720447	0.097057	0.257335	2200.548096
2397.710535	1.395260	0.270076	605.542847
2397.711490	0.734927	0.270076	1307.397949
2397.712398	0.097614	0.270076	1396.031006
2397.713324	0.096936	0.270076	1485.793823
2397.714216	0.096998	0.270076	1572.316284
2397.715167	0.097028	0.270076	1664.589478
2397.716068	0.097028	0.270076	1752.011353
2397.716972	0.097035	0.270076	1839.730957
2397.717870	0.097039	0.270076	1926.871582
2397.718818	0.096980	0.270076	2018.808594
2397.719722	0.096976	0.270076	2106.475098
2397.720614	0.097090	0.270076	2193.079346
2398.726100	1.403181	0.257315	625.818787
2398.726997	0.772614	0.257315	1318.853027
2398.727920	0.098676	0.257315	1409.930542
2398.728847	0.096958	0.257315	1499.810669
2398.729746	0.096984	0.257315	1586.999023
2398.730635	0.097090	0.257315	1673.311890
2398.731579	0.097075	0.257315	1764.950928
2398.732484	0.097028	0.257315	1852.760864
2398.733374	0.097053	0.257315	1939.138184
2398.734307	0.097119	0.257315	2029.750366
2398.735227	0.097079	0.257315	2119.062988
2398.736132	0.097039	0.257315	2206.882812
2399.719877	1.391001	0.282069	602.303406
2399.720834	0.749011	0.282069	1319.107178
2399.721751	0.097848	0.282069	1408.833740
2399.722647	0.096976	0.282069	1495.724487
2399.723537	0.097006	0.282069	1582.059448
2399.724469	0.097108	0.282069	1672.564209
2399.725375	0.096998	0.282069	1760.444702
2399.726274	0.097053	0.282069	1847.695557
2399.727167	0.097057	0.282069	1934.367310
2399.728106	0.097141	0.282069	2025.582764
2399.729012	0.097031	0.282069	2113.493164
2399.729900	0.097083	0.282069	2199.702393
2400.740601	1.477233	0.263494	710.548889
2400.741516	0.661498	0.263494	1315.819336
2400.742417	0.097738	0.263494	1403.881348
2400.743303	0.096899	0.263494	1489.734253
2400.744254	0.097185	0.263494	1582.157227
2400.745155	0.097002	0.263494	1669.556030
2400.746046	0.097083	0.263494	1756.056519
2400.746986	0.097104	0.263494	1847.334717
2400.747881	0.097108	0.263494	1934.246460
2400.748775	0.097002	0.263494	2020.966187
2400.749671	0.097024	0.263494	2107.899658
2400.750604	0.097057	0.263494	2198.453613
2401.730773	1.412505	0.290581	621.502136
2401.731700	0.729580	0.290581	1297.822876
2401.732601	0.098082	0.290581	1386.195068
2401.733529	0.097042	0.290581	1476.250244
2401.734440	0.097079	0.290581	1564.689087
2401.735344	0.096984	0.290581	1652.362305
2401.736232	0.097002	0.290581	1738.500000
2401.737173	0.097104	0.290581	1829.875366
2401.738077	0.097031	0.290581	1917.591553
2401.738975	0.097112	0.290581	2004.797974
2401.739865	0.097072	0.290581	2091.191650
2401.740810	0.097112	0.290581	2182.962402
2402.756043	1.402163	0.258487	614.147400
2402.757006	0.706725	0.258487	1294.723389
2402.757913	0.097804	0.258487	1383.431641
2402.758816	0.096984	0.258487	1471.007812
2402.759703	0.097035	0.258487	1557.077759
2402.760651	0.097137	0.258487	1649.164062
2402.761558	0.097031	0.258487	1737.171387
2402.762449	0.097064	0.258487	1823.655640
2402.763379	0.097006	0.258487	1913.870850
2402.764291	0.097123	0.258487	2002.446899
2402.765195	0.096987	0.258487	2090.123535
2402.766092	0.097064	0.258487	2177.190186
2403.742155	1.404284	0.287745	616.480469
2403.743046	0.774584	0.287745	1306.634521
2403.744019	0.097727	0.287745	1401.722900
2403.744925	0.096995	0.287745	1489.600098
2403.745819	0.096998	0.287745	1576.316528
2403.746762	0.097050	0.287745	1667.834229
2403.747662	0.097094	0.287745	1755.218384
2403.748560	0.097006	0.287745	1842.329468
2403.749448	0.096976	0.287745	1928.444458
2403.750381	0.097090	0.287745	2019.029297
2403.751287	0.097046	0.287745	2106.952881
2403.752195	0.097042	0.287745	2195.067139
2404.770274	1.429691	0.264493	647.650085
2404.771204	0.700155	0.264493	1298.794189
2404.772104	0.097906	0.264493	1386.910034
2404.772991	0.096940	0.264493	1472.895508
2404.773925	0.097094	0.264493	1563.580811
2404.774835	0.097006	0.264493	1651.855957
2404.775730	0.097042	0.264493	1738.708740
2404.776660	0.097148	0.264493	1829.056763
2404.777562	0.097086	0.264493	1916.628540
2404.778463	0.096987	0.264493	2004.014160
2404.779352	0.097050	0.264493	2090.291260
2404.780295	0.097137	0.264493	2181.891846
2405.755337	1.401145	0.290395	613.701477
2405.756230	0.775093	0.290395	1305.859375
2405.757184	0.098119	0.290395	1399.464844
2405.758086	0.096925	0.290395	1486.891235
2405.758980	0.096969	0.290395	1573.581543
2405.759913	0.097053	0.290395	1664.132202
2405.760825	0.097086	0.290395	1752.674805
2405.761721	0.097042	0.290395	1839.624634
2405.762609	0.096980	0.290395	1925.742920
2405.763556	0.097163	0.290395	2017.756348
2405.764455	0.097075	0.290395	2105.026855
2405.765357	0.097072	0.290395	2192.585449
2406.784467	1.413014	0.256968	631.617249
2406.785368	0.760276	0.256968	1316.625854
2406.786307	0.098555	0.256968	1409.168701
2406.787214	0.097130	0.256968	1497.265747
2406.788119	0.096918	0.256968	1584.976318
2406.789016	0.096973	0.256968	1671.960815
2406.789950	0.097115	0.256968	1762.666626
2406.790844	0.097079	0.256968	1849.455078
2406.791742	0.097050	0.256968	1936.605591
2406.792628	0.097057	0.256968	2022.598022
2406.793570	0.097148	0.256968	2114.111816
2406.794466	0.097013	0.256968	2201.035400
2407.769602	1.431244	0.290540	708.465698
2407.770526	0.623771	0.290540	1284.829834
2407.771423	0.097562	0.290540	1372.343140
2407.772311	0.097020	0.290540	1458.497070
2407.773251	0.097137	0.290540	1549.806274
2407.774158	0.097083	0.290540	1637.860107
2407.775062	0.097104	0.290540	1725.642578
2407.775949	0.096976	0.290540	1811.660522
2407.776892	0.097163	0.290540	1903.285278
2407.777793	0.097061	0.290540	1990.736816
2407.778682	0.097028	0.290540	2076.994385
2407.779607	0.097126	0.290540	2166.836426
2408.795858	1.406407	0.255844	614.600037
2408.796757	0.770211	0.255844	1307.019897
2408.797728	0.097668	0.255844	1401.855957
2408.798628	0.096951	0.255844	1489.111572
2408.799514	0.097090	0.255844	1575.133179
2408.800449	0.097050	0.255844	1665.874512
2408.801366	0.097039	0.255844	1754.858887
2408.802288	0.096969	0.255844	1844.264282
2408.803179	0.097006	0.255844	1930.696289
2408.804129	0.097024	0.255844	2022.869019
2408.805023	0.096940	0.255844	2109.533203
2408.805942	0.097057	0.255844	2198.728516
2409.783799	1.456190	0.290077	709.164612
2409.784723	0.640009	0.290077	1300.532471
2409.785657	0.097449	0.290077	1391.549561
2409.786543	0.097064	0.290077	1477.548462
2409.787500	0.097064	0.290077	1570.438965
2409.788396	0.097086	0.290077	1657.428223
2409.789285	0.097031	0.290077	1743.688965
2409.790212	0.097075	0.290077	1833.677734
2409.791126	0.097017	0.290077	1922.350952
2409.792035	0.097112	0.290077	2010.625610
2409.792924	0.097086	0.290077	2096.935303
2409.793852	0.097094	0.290077	2187.038086
2410.807772	1.411849	0.252090	631.096680
2410.808668	0.771050	0.252090	1321.957275
2410.809633	0.097936	0.252090	1416.465332
2410.810524	0.097009	0.252090	1502.900635
2410.811425	0.097031	0.252090	1590.325806
2410.812316	0.097024	0.252090	1676.774170
2410.813264	0.097108	0.252090	1768.832642
2410.814175	0.097064	0.252090	1857.258179
2410.815071	0.097090	0.252090	1944.250732
2410.815999	0.097090	0.252090	2034.350098
2410.816897	0.097137	0.252090	2121.579590
2410.817798	0.097061	0.252090	2209.031250
2411.798735	1.413032	0.283450	627.386353
2411.799689	0.660410	0.283450	1257.417725
2411.800601	0.097841	0.283450	1346.648315
2411.801493	0.097115	0.283450	1433.275269
2411.802409	0.097211	0.283450	1522.320312
2411.803334	0.097280	0.283450	1612.304565
2411.804240	0.097178	0.283450	1700.347656
2411.805131	0.097200	0.283450	1786.952637
2411.806064	0.097222	0.283450	1877.660400
2411.806967	0.097200	0.283450	1965.431763
2411.807862	0.097174	0.283450	2052.402588
2411.808748	0.097174	0.283450	2138.498779
2412.819216	1.457750	0.254656	740.537109
2412.820132	0.605035	0.254656	1294.749512
2412.821035	0.097581	0.254656	1382.864746
2412.821925	0.097075	0.254656	1469.261719
2412.822861	0.097214	0.254656	1560.254395
2412.823764	0.097104	0.254656	1647.939697
2412.824671	0.097244	0.254656	1736.139648
2412.825581	0.097137	0.254656	1824.534668
2412.826517	0.097163	0.254656	1915.479248
2412.827426	0.097181	0.254656	2003.817139
2412.828318	0.097189	0.254656	2090.509521
2412.829243	0.097156	0.254656	2180.378662
2413.813718	1.413475	0.288236	634.650452
2413.814620	0.759133	0.288236	1319.388672
2413.815547	0.098602	0.288236	1410.792969
2413.816459	0.097192	0.288236	1499.432373
2413.817364	0.097104	0.288236	1587.311890
2413.818262	0.097123	0.288236	1674.528198
2413.819192	0.097185	0.288236	1764.910278
2413.820098	0.097174	0.288236	1852.949951
2413.821003	0.097137	0.288236	1940.859375
2413.821888	0.097181	0.288236	2026.864868
2413.822831	0.097273	0.288236	2118.593262
2413.823738	0.097097	0.288236	2206.660400
2414.830294	1.412875	0.256090	634.380798
2414.831195	0.756530	0.256090	1316.013916
2414.832124	0.098602	0.256090	1407.615479
2414.833036	0.097233	0.256090	1496.291626
2414.833950	0.097185	0.256090	1585.118774
2414.834841	0.097119	0.256090	1671.651978
2414.835772	0.097236	0.256090	1762.178955
2414.836673	0.097126	0.256090	1849.689941
2414.837576	0.097123	0.256090	1937.391846
2414.838467	0.097192	0.256090	2023.990234
2414.839425	0.097269	0.256090	2117.174316
2414.840330	0.097163	0.256090	2205.106934
2415.828181	1.414226	0.286931	634.987488
2415.829163	0.627008	0.286931	1250.709351
2415.830066	0.097705	0.286931	1338.937012
2415.830959	0.097145	0.286931	1425.687256
2415.831846	0.097178	0.286931	1511.883911
2415.832802	0.097317	0.286931	1604.918823
2415.833711	0.097141	0.286931	1693.220093
2415.834610	0.097233	0.286931	1780.632202
2415.835530	0.097321	0.286931	1870.167114
2415.836428	0.097324	0.286931	1957.564209
2415.837324	0.097222	0.286931	2044.674805
2415.838210	0.097229	0.286931	2130.819824
2416.841676	1.417050	0.258684	629.170044
2416.842657	0.623276	0.258684	1240.604126
2416.843567	0.097727	0.258684	1329.535767
2416.844462	0.097225	0.258684	1416.552490
2416.845407	0.097255	0.258684	1508.458130
2416.846306	0.097247	0.258684	1595.883423
2416.847202	0.097225	0.258684	1682.997314
2416.848090	0.097244	0.258684	1769.349731
2416.849027	0.097339	0.258684	1860.556274
2416.849929	0.097277	0.258684	1948.299805
2416.850835	0.097291	0.258684	2036.445679
2416.851724	0.097273	0.258684	2122.921387
2417.841918	1.422103	0.286862	693.986328
2417.842836	0.656993	0.286862	1297.106201
2417.843730	0.097991	0.286862	1384.709961
2417.844618	0.097196	0.286862	1471.020020
2417.845564	0.097262	0.286862	1563.029785
2417.846462	0.097218	0.286862	1650.331543
2417.847367	0.097214	0.286862	1738.310547
2417.848255	0.097258	0.286862	1824.675903
2417.849211	0.097310	0.286862	1917.703857
2417.850120	0.097192	0.286862	2006.051758
2417.851015	0.097185	0.286862	2093.032471
2417.851944	0.097255	0.286862	2183.382080
2418.853588	1.422645	0.266745	640.190369
2418.854495	0.755057	0.266745	1325.027344
2418.855431	0.098181	0.266745	1416.924927
2418.856335	0.097196	0.266745	1504.790161
2418.857234	0.097236	0.266745	1592.205566
2418.858122	0.097233	0.266745	1678.548218
2418.859065	0.097225	0.266745	1770.231689
2418.859974	0.097240	0.266745	1858.622803
2418.860866	0.097203	0.266745	1945.328247
2418.861795	0.097335	0.266745	2035.752686
2418.862700	0.097317	0.266745	2123.824463
2418.863600	0.097156	0.266745	2211.264648
2419.855826	1.411340	0.292192	625.223755
2419.856742	0.747067	0.292192	1309.536865
2419.857640	0.098489	0.292192	1397.979736
2419.858575	0.097240	0.292192	1488.899170
2419.859487	0.097280	0.292192	1577.618774
2419.860396	0.097167	0.292192	1665.943359
2419.861284	0.097163	0.292192	1752.224121
2419.862229	0.097277	0.292192	1844.150513
2419.863136	0.097200	0.292192	1932.310669
2419.864026	0.097251	0.292192	2018.864014
2419.864964	0.097284	0.292192	2110.116455
2419.865875	0.097244	0.292192	2198.705322
2420.866526	1.420404	0.270358	640.602234
2420.867422	0.762202	0.270358	1323.535400
2420.868375	0.098738	0.270358	1417.632568
2420.869279	0.097211	0.270358	1505.510986
2420.870183	0.097240	0.270358	1593.415894
2420.871074	0.097207	0.270358	1680.027344
2420.872009	0.097192	0.270358	1770.902222
2420.872914	0.097170	0.270358	1858.841431
2420.873815	0.097214	0.270358	1946.431519
2420.874700	0.097200	0.270358	2032.453247
2420.875636	0.097273	0.270358	2123.500732
2420.876546	0.097200	0.270358	2211.952393
2421.869015	1.417017	0.293191	633.406372
2421.869941	0.718975	0.293191	1299.176758
2421.870838	0.098331	0.293191	1387.379883
2421.871779	0.097310	0.293191	1478.948242
2421.872686	0.097189	0.293191	1567.098389
2421.873587	0.097214	0.293191	1654.688477
2421.874471	0.097185	0.293191	1740.600098
2421.875411	0.097284	0.293191	1832.046997
2421.876315	0.097141	0.293191	1919.862549
2421.877214	0.097189	0.293191	2007.235229
2421.878143	0.097291	0.293191	2097.618896
2421.879057	0.097247	0.293191	2186.502930
2422.878946	1.427091	0.274383	645.045105
2422.879877	0.704015	0.274383	1300.482910
2422.880767	0.098156	0.274383	1387.841309
2422.881696	0.097233	0.274383	1478.170410
2422.882601	0.097222	0.274383	1566.156006
2422.883504	0.097288	0.274383	1654.006714
2422.884390	0.097262	0.274383	1740.180786
2422.885335	0.097251	0.274383	1832.083008
2422.886242	0.097229	0.274383	1920.269775
2422.887133	0.097181	0.274383	2006.858398
2422.888070	0.097255	0.274383	2097.986084
2422.888970	0.097258	0.274383	2185.518555
2423.882200	1.417522	0.296752	630.797241
2423.883106	0.764374	0.296752	1323.319824
2423.883996	0.098595	0.296752	1411.069336
2423.884929	0.097167	0.296752	1501.725952
2423.885837	0.097258	0.296752	1590.036499
2423.886739	0.097178	0.296752	1677.690796
2423.887627	0.097269	0.296752	1764.065918
2423.888579	0.097251	0.296752	1856.648804
2423.889480	0.097123	0.296752	1944.156494
2423.890370	0.097203	0.296752	2030.667480
2423.891305	0.097284	0.296752	2121.627930
2423.892207	0.097288	0.296752	2209.381348
2424.892420	1.433848	0.271390	715.489929
2424.893347	0.602329	0.271390	1273.848999
2424.894276	0.097438	0.271390	1364.368652
2424.895180	0.097152	0.271390	1452.194092
2424.896134	0.097101	0.271390	1544.828247
2424.897036	0.097170	0.271390	1632.475952
2424.897955	0.097207	0.271390	1721.809204
2424.898846	0.097200	0.271390	1808.414185
2424.899797	0.097141	0.271390	1900.795410
2424.900712	0.097207	0.271390	1989.739868
2424.901603	0.097178	0.271390	2076.325195
2424.902548	0.097244	0.271390	2168.220459
2425.893836	1.394718	0.298810	613.675964
2425.894729	0.790917	0.298810	1319.964600
2425.895702	0.097896	0.298810	1415.216919
2425.896603	0.097053	0.298810	1502.661865
2425.897529	0.097148	0.298810	1592.621338
2425.898429	0.097192	0.298810	1680.094482
2425.899382	0.097192	0.298810	1772.718872
2425.900281	0.097145	0.298810	1860.052002
2425.901175	0.097200	0.298810	1946.948486
2425.902106	0.097174	0.298810	2037.417603
2425.903017	0.097119	0.298810	2125.893066
2425.903936	0.097185	0.298810	2215.206055
2426.905818	1.421613	0.273416	638.304016
2426.906728	0.743306	0.273416	1314.712158
2426.907618	0.098525	0.273416	1402.399780
2426.908581	0.097181	0.273416	1495.985474
2426.909486	0.097174	0.273416	1583.927979
2426.910376	0.097185	0.273416	1670.422729
2426.911273	0.097262	0.273416	1757.666748
2426.912197	0.097251	0.273416	1847.526611
2426.913093	0.097137	0.273416	1934.561768
2426.913979	0.097200	0.273416	2020.680664
2426.914914	0.097269	0.273416	2111.627441
2426.915831	0.097262	0.273416	2200.816650
2427.906004	1.417980	0.295189	632.418945
2427.906907	0.756892	0.295189	1315.892578
2427.907842	0.098229	0.295189	1407.736450
2427.908759	0.097167	0.295189	1496.838379
2427.909665	0.097211	0.295189	1584.911255
2427.910553	0.097200	0.295189	1671.224609
2427.911504	0.097277	0.295189	1763.734619
2427.912414	0.097214	0.295189	1852.199707
2427.913305	0.097247	0.295189	1938.847046
2427.914251	0.097306	0.295189	2030.898437
2427.915147	0.097288	0.295189	2118.068115
2427.916054	0.097200	0.295189	2206.228271
2428.920262	1.393034	0.272103	605.969604
2428.921231	0.659722	0.272103	1245.239990
2428.922132	0.097965	0.272103	1333.506592
2428.923037	0.097225	0.272103	1421.495483
2428.923930	0.097269	0.272103	1508.356934
2428.924878	0.097280	0.272103	1600.578613
2428.925790	0.097203	0.272103	1689.228027
2428.926683	0.097196	0.272103	1776.024048
2428.927631	0.097328	0.272103	1868.290894
2428.928541	0.097328	0.272103	1956.859253
2428.929432	0.097211	0.272103	2043.473999
2428.930320	0.097251	0.272103	2129.832764
2429.917128	1.415815	0.297715	620.127197
2429.918111	0.614092	0.297715	1223.779541
2429.919020	0.097775	0.297715	1312.656738
2429.919912	0.097189	0.297715	1399.349121
2429.920856	0.097306	0.297715	1491.205933
2429.921761	0.097317	0.297715	1579.277710
2429.922664	0.097266	0.297715	1667.108521
2429.923551	0.097244	0.297715	1753.363647
2429.924489	0.097277	0.297715	1844.609131
2429.925394	0.097310	0.297715	1932.674316
2429.926293	0.097306	0.297715	2020.152344
2429.927200	0.097280	0.297715	2108.385498
2430.934737	1.412351	0.274709	624.259155
2430.935663	0.726947	0.274709	1297.412109
2430.936561	0.098350	0.274709	1385.730103
2430.937501	0.097170	0.274709	1477.070312
2430.938398	0.097229	0.274709	1564.284668
2430.939296	0.097225	0.274709	1651.593018
2430.940184	0.097222	0.274709	1737.925903
2430.941132	0.097317	0.274709	1830.182373
2430.942036	0.097167	0.274709	1918.021118
2430.942927	0.097240	0.274709	2004.661987
2430.943850	0.097277	0.274709	2094.448242
2430.944777	0.097244	0.274709	2184.593018
2431.928788	1.413959	0.297316	634.867432
2431.929684	0.765992	0.297316	1321.196655
2431.930631	0.098749	0.297316	1414.711792
2431.931532	0.097218	0.297316	1502.305176
2431.932432	0.097196	0.297316	1589.781616
2431.933321	0.097240	0.297316	1676.228027
2431.934260	0.097324	0.297316	1767.615479
2431.935154	0.097269	0.297316	1854.574219
2431.936057	0.097167	0.297316	1942.315796
2431.936950	0.097178	0.297316	2029.095459
2431.937897	0.097258	0.297316	2121.198975
2431.938806	0.097196	0.297316	2209.550293
2432.949708	1.406276	0.272868	621.573853
2432.950691	0.656689	0.272868	1267.099609
2432.951589	0.097745	0.272868	1354.875000
2432.952487	0.097255	0.272868	1442.209717
2432.953380	0.097299	0.272868	1529.097412
2432.954325	0.097288	0.272868	1621.034180
2432.955232	0.097295	0.272868	1709.280640
2432.956128	0.097229	0.272868	1796.397827
2432.957056	0.097280	0.272868	1886.673950
2432.957956	0.097262	0.272868	1974.209717
2432.958849	0.097170	0.272868	2060.982910
2432.959734	0.097291	0.272868	2147.085693
2433.939667	1.404122	0.296716	622.026184
2433.940617	0.675582	0.296716	1263.829346
2433.941523	0.097983	0.296716	1352.602295
2433.942425	0.097152	0.296716	1440.233521
2433.943313	0.097284	0.296716	1526.621704
2433.944264	0.097317	0.296716	1619.170044
2433.945166	0.097200	0.296716	1706.844238
2433.946059	0.097211	0.296716	1793.653320
2433.947000	0.097291	0.296716	1885.204346
2433.947898	0.097240	0.296716	1972.525879
2433.948790	0.097192	0.296716	2059.221436
2433.949679	0.097247	0.296716	2145.674316
2434.964185	1.417950	0.267567	629.569946
2434.965116	0.710017	0.267567	1290.595825
2434.966014	0.098170	0.267567	1378.752686
2434.966946	0.097332	0.267567	1469.465698
2434.967850	0.097277	0.267567	1557.403809
2434.968755	0.097200	0.267567	1645.369507
2434.969642	0.097233	0.267567	1731.614868
2434.970592	0.097357	0.267567	1824.104248
2434.971490	0.097218	0.267567	1911.406006
2434.972387	0.097222	0.267567	1998.613892
2434.973275	0.097288	0.267567	2085.005371
2434.974207	0.097310	0.267567	2175.697998
2435.951315	1.413065	0.299548	623.161743
2435.952226	0.749857	0.299548	1306.281616
2435.953114	0.098639	0.299548	1393.872925
2435.954071	0.097262	0.299548	1486.952637
2435.954978	0.097185	0.299548	1575.099487
2435.955874	0.097269	0.299548	1662.252808
2435.956808	0.097273	0.299548	1753.105713
2435.957707	0.097233	0.299548	1840.517822
2435.958604	0.097214	0.299548	1927.719116
2435.959492	0.097255	0.299548	2014.081177
2435.960422	0.097302	0.299548	2104.572266
2435.961327	0.097258	0.299548	2192.591064
2436.979156	1.411505	0.265891	626.708252
2436.980105	0.703982	0.265891	1294.787109
2436.981015	0.098009	0.265891	1383.975342
2436.981906	0.097148	0.265891	1470.534546
2436.982790	0.097163	0.265891	1556.426758
2436.983735	0.097262	0.265891	1648.339355
2436.984639	0.097277	0.265891	1736.277344
2436.985544	0.097302	0.265891	1824.335937
2436.986435	0.097240	0.265891	1910.976807
2436.987380	0.097335	0.265891	2002.958618
2436.988289	0.097192	0.265891	2091.306396
2436.989183	0.097196	0.265891	2178.199707
2437.964008	1.430050	0.300784	656.392944
2437.964926	0.719205	0.300784	1316.623413
2437.965812	0.098328	0.300784	1403.741699
2437.966751	0.097222	0.300784	1495.032837
2437.967661	0.097262	0.300784	1583.541260
2437.968566	0.097258	0.300784	1671.560059
2437.969452	0.097218	0.300784	1757.695190
2437.970404	0.097306	0.300784	1850.330444
2437.971305	0.097207	0.300784	1937.913940
2437.972200	0.097258	0.300784	2024.960083
2437.973122	0.097233	0.300784	2114.608643
2437.974037	0.097233	0.300784	2203.576416
2438.992590	1.403807	0.266169	617.675232
2438.993548	0.740610	0.266169	1327.179932
2438.994455	0.097808	0.266169	1415.891479
2438.995363	0.097203	0.266169	1504.152100
2438.996246	0.097203	0.266169	1589.982666
2438.997180	0.097255	0.266169	1680.818481
2438.998093	0.097269	0.266169	1769.625366
2438.998991	0.097255	0.266169	1856.960083
2438.999880	0.097211	0.266169	1943.380371
2439.000835	0.097277	0.266169	2036.279541
2439.001741	0.097258	0.266169	2124.395508
2439.002633	0.097240	0.266169	2211.133545
2439.977428	1.410740	0.300941	619.314758
2439.978341	0.757507	0.300941	1310.918945
2439.979231	0.098573	0.300941	1398.648926
2439.980171	0.097214	0.300941	1490.030396
2439.981091	0.097225	0.300941	1579.477661
2439.981991	0.097211	0.300941	1666.967285
2439.982880	0.097218	0.300941	1753.394043
2439.983826	0.097284	0.300941	1845.424683
2439.984737	0.097211	0.300941	1933.983643
2439.985639	0.097225	0.300941	2021.680908
2439.986523	0.097269	0.300941	2107.666992
2439.987455	0.097299	0.300941	2198.349365
2441.005513	1.397406	0.273670	612.063843
2441.006409	0.772390	0.273670	1304.125366
2441.007374	0.097855	0.273670	1398.555664
2441.008282	0.097192	0.273670	1486.806396
2441.009173	0.097244	0.273670	1573.450439
2441.010117	0.097280	0.273670	1665.282959
2441.011022	0.097236	0.273670	1753.281860
2441.011911	0.097200	0.273670	1839.692383
2441.012805	0.097174	0.273670	1926.566040
2441.013729	0.097354	0.273670	2016.520630
2441.014646	0.097167	0.273670	2105.622559
2441.015544	0.097222	0.273670	2192.927734
2441.991383	1.401676	0.298911	629.352539
2441.992283	0.766985	0.298911	1319.638916
2441.993213	0.098855	0.298911	1411.574097
2441.994120	0.097233	0.298911	1499.764160
2441.995016	0.097229	0.298911	1586.881348
2441.995908	0.097295	0.298911	1673.668457
2441.996840	0.097328	0.298911	1764.378052
2441.997751	0.097247	0.298911	1852.970337
2441.998655	0.097251	0.298911	1940.885254
2441.999542	0.097299	0.298911	2027.189087
2442.000493	0.097321	0.298911	2119.740967
2442.001395	0.097207	0.298911	2207.421631
2443.017688	1.418236	0.276417	638.206238
2443.018586	0.762931	0.276417	1323.318115
2443.019552	0.098635	0.276417	1418.599731
2443.020452	0.097277	0.276417	1506.148682
2443.021349	0.097236	0.276417	1593.369629
2443.022245	0.097178	0.276417	1680.440918
2443.023184	0.097192	0.276417	1771.704590
2443.024090	0.097178	0.276417	1859.747559
2443.024986	0.097211	0.276417	1946.848389
2443.025891	0.097277	0.276417	2034.883667
2443.026812	0.097258	0.276417	2124.458496
2443.027717	0.097156	0.276417	2212.384521
2444.006145	1.465254	0.298476	722.370178
2444.007070	0.629524	0.298476	1304.679810
2444.007966	0.097815	0.298476	1392.322021
2444.008855	0.097152	0.298476	1478.690186
2444.009788	0.097310	0.298476	1569.479980
2444.010692	0.097302	0.298476	1657.441162
2444.011592	0.097214	0.298476	1744.934082
2444.012509	0.097280	0.298476	1834.140137
2444.013429	0.097284	0.298476	1923.641357
2444.014337	0.097203	0.298476	2011.901978
2444.015239	0.097207	0.298476	2099.582764
2444.016173	0.097277	0.298476	2190.439209
2445.028554	1.397029	0.280530	613.295654
2445.029521	0.648567	0.280530	1240.459839
2445.030422	0.097819	0.280530	1328.594360
2445.031326	0.097178	0.280530	1416.442993
2445.032211	0.097207	0.280530	1502.471191
2445.033160	0.097310	0.280530	1594.817993
2445.034068	0.097130	0.280530	1683.012207
2445.034959	0.097148	0.280530	1769.571411
2445.035886	0.097280	0.280530	1859.750244
2445.036793	0.097236	0.280530	1947.943604
2445.037693	0.097156	0.280530	2035.383789
2445.038587	0.097251	0.280530	2122.326172
2446.021069	1.396143	0.301385	611.510437
2446.021960	0.792085	0.301385	1317.258057
2446.022925	0.098075	0.301385	1411.900391
2446.023837	0.097196	0.301385	1500.543213
2446.024743	0.097269	0.301385	1588.669189
2446.025671	0.097310	0.301385	1678.972412
2446.026582	0.097266	0.301385	1767.581421
2446.027486	0.097159	0.301385	1855.413574
2446.028378	0.097244	0.301385	1942.154907
2446.029307	0.097317	0.301385	2032.562256
2446.030203	0.097317	0.301385	2119.758301
2446.031101	0.097218	0.301385	2207.060059
2447.039224	1.460002	0.284582	705.181152
2447.040153	0.634893	0.284582	1294.996338
2447.041053	0.097760	0.284582	1382.980347
2447.041942	0.097236	0.284582	1469.423462
2447.042877	0.097383	0.284582	1560.476440
2447.043785	0.097222	0.284582	1648.753662
2447.044677	0.097295	0.284582	1735.540771
2447.045607	0.097273	0.284582	1826.004639
2447.046518	0.097284	0.284582	1914.630249
2447.047426	0.097277	0.284582	2002.957397
2447.048328	0.097236	0.284582	2090.664551
2447.049260	0.097302	0.284582	2181.350342
2448.035793	1.413179	0.296313	633.104065
2448.036682	0.755614	0.296313	1304.844971
2448.037649	0.097800	0.296313	1399.417847
2448.038575	0.097192	0.296313	1489.417969
2448.039471	0.097189	0.296313	1576.499023
2448.040425	0.097255	0.296313	1669.279907
2448.041328	0.097145	0.296313	1757.001587
2448.042250	0.097211	0.296313	1846.629883
2448.043142	0.097196	0.296313	1933.328735
2448.044099	0.097196	0.296313	2026.345337
2448.045015	0.097196	0.296313	2115.376953
2448.045901	0.097291	0.296313	2201.576904
2449.049815	1.416973	0.291080	627.718872
2449.050726	0.748934	0.291080	1309.998047
2449.051617	0.098525	0.291080	1397.784180
2449.052557	0.097222	0.291080	1489.172607
2449.053471	0.097192	0.291080	1578.006470
2449.054371	0.097163	0.291080	1665.453247
2449.055262	0.097192	0.291080	1752.051636
2449.056206	0.097262	0.291080	1843.866943
2449.057112	0.097240	0.291080	1931.966431
2449.058012	0.097266	0.291080	2019.505493
2449.058905	0.097236	0.291080	2106.337646
2449.059851	0.097288	0.291080	2198.371826
2450.050772	1.411608	0.299882	629.577026
2450.051667	0.761748	0.299882	1311.341553
2450.052631	0.098016	0.299882	1405.829346
2450.053539	0.097170	0.299882	1494.060059
2450.054428	0.097218	0.299882	1580.486816
2450.055367	0.097247	0.299882	1671.802002
2450.056271	0.097229	0.299882	1759.697021
2450.057175	0.097196	0.299882	1847.562256
2450.058065	0.097185	0.299882	1934.057007
2450.059002	0.097247	0.299882	2025.177734
2450.059907	0.097192	0.299882	2113.136719
2450.060809	0.097170	0.299882	2200.784424
2451.060938	1.394692	0.288321	609.480530
2451.061884	0.756793	0.288321	1325.406982
2451.062809	0.098027	0.288321	1416.082275
2451.063701	0.097156	0.288321	1502.745239
2451.064591	0.097269	0.288321	1589.314941
2451.065524	0.097269	0.288321	1680.067139
2451.066436	0.097207	0.288321	1768.719971
2451.067339	0.097332	0.288321	1856.610352
2451.068226	0.097258	0.288321	1942.878418
2451.069176	0.097375	0.288321	2035.385132
2451.070084	0.097222	0.288321	2123.662354
2451.070976	0.097269	0.288321	2210.426514
2452.064464	1.403130	0.297110	613.167725
2452.065418	0.683573	0.297110	1265.296387
2452.066322	0.098137	0.297110	1354.012451
2452.067222	0.097189	0.297110	1441.482300
2452.068105	0.097214	0.297110	1527.322632
2452.069046	0.097229	0.297110	1618.815186
2452.069948	0.097222	0.297110	1706.509155
2452.070848	0.097233	0.297110	1794.018555
2452.071780	0.097324	0.297110	1884.724731
2452.072697	0.097251	0.297110	1973.903931
2452.073608	0.097240	0.297110	2062.489502
2452.074505	0.097247	0.297110	2149.720459
2453.072606	1.425406	0.287052	641.432922
2453.073512	0.749092	0.287052	1320.110107
2453.074398	0.098672	0.287052	1407.533447
2453.075348	0.097218	0.287052	1499.890625
2453.076251	0.097240	0.287052	1587.698364
2453.077149	0.097247	0.287052	1675.026489
2453.078039	0.097266	0.287052	1761.592896
2453.078988	0.097368	0.287052	1853.995239
2453.079899	0.097189	0.287052	1942.534180
2453.080795	0.097284	0.287052	2029.700562
2453.081721	0.097335	0.287052	2119.833008
2453.082624	0.097321	0.287052	2207.713379
2454.078460	1.457611	0.289336	712.771851
2454.079389	0.619424	0.289336	1288.216553
2454.080297	0.097687	0.289336	1376.916138
2454.081189	0.097115	0.289336	1463.543091
2454.082142	0.097321	0.289336	1556.289551
2454.083042	0.097181	0.289336	1643.752808
2454.083940	0.097273	0.289336	1731.103882
2454.084866	0.097324	0.289336	1821.226074
2454.085779	0.097302	0.289336	1910.062988
2454.086693	0.097247	0.289336	1998.947021
2454.087581	0.097291	0.289336	2085.341553
2454.088500	0.097251	0.289336	2174.715088
2455.085781	1.417771	0.282395	630.908081
2455.086680	0.767065	0.282395	1320.500000
2455.087574	0.098712	0.282395	1408.748657
2455.088521	0.097152	0.282395	1500.751709
2455.089424	0.097229	0.282395	1588.549561
2455.090334	0.097189	0.282395	1676.991333
2455.091225	0.097251	0.282395	1763.641968
2455.092158	0.097255	0.282395	1854.380493
2455.093067	0.097214	0.282395	1942.748291
2455.093963	0.097247	0.282395	2029.881836
2455.094888	0.097284	0.282395	2119.869385
2455.095798	0.097339	0.282395	2208.447754
2456.092388	1.432006	0.289227	647.266541
2456.093297	0.739644	0.289227	1319.602539
2456.094183	0.098533	0.289227	1406.902588
2456.095132	0.097244	0.289227	1499.186768
2456.096032	0.097313	0.289227	1586.768677
2456.096933	0.097222	0.289227	1674.365356
2456.097820	0.097277	0.289227	1760.649658
2456.098768	0.097317	0.289227	1852.906128
2456.099672	0.097192	0.289227	1940.768066
2456.100568	0.097222	0.289227	2027.878662
2456.101497	0.097302	0.289227	2118.272461
2456.102398	0.097306	0.289227	2205.945068
2457.097681	1.407777	0.287358	620.829712
2457.098633	0.681559	0.287358	1269.673706
2457.099544	0.098009	0.287358	1358.959961
2457.100437	0.097130	0.287358	1445.697144
2457.101369	0.097233	0.287358	1536.317993
2457.102267	0.097189	0.287358	1623.593506
2457.103164	0.097244	0.287358	1710.821045
2457.104049	0.097181	0.287358	1796.826538
2457.104983	0.097280	0.287358	1887.686279
2457.105889	0.097214	0.287358	1975.762451
2457.106790	0.097145	0.287358	2063.289795
2457.107676	0.097178	0.287358	2149.389160
2458.106833	1.406210	0.284304	620.138489
2458.107732	0.762125	0.284304	1305.289062
2458.108675	0.098218	0.284304	1397.908447
2458.109578	0.097112	0.284304	1485.600464
2458.110482	0.097218	0.284304	1573.485596
2458.111405	0.097284	0.284304	1663.278687
2458.112311	0.097321	0.284304	1751.451172
2458.113214	0.097244	0.284304	1839.262207
2458.114102	0.097247	0.284304	1925.617798
2458.115044	0.097306	0.284304	2017.279907
2458.115955	0.097262	0.284304	2105.885498
2458.116845	0.097225	0.284304	2192.416016
2459.111641	1.422008	0.280369	632.793579
2459.112563	0.728782	0.280369	1304.730225
2459.113458	0.098254	0.280369	1392.667969
2459.114390	0.097214	0.280369	1483.271729
2459.115294	0.097288	0.280369	1571.219727
2459.116209	0.097229	0.280369	1660.184326
2459.117105	0.097214	0.280369	1747.288330
2459.118045	0.097255	0.280369	1838.707642
2459.118949	0.097218	0.280369	1926.592773
2459.119844	0.097255	0.280369	2013.635620
2459.120728	0.097229	0.280369	2099.585937
2459.121680	0.097302	0.280369	2192.217773
2460.119516	1.420946	0.288397	638.004761
2460.120410	0.766805	0.288397	1323.528809
2460.121367	0.098141	0.288397	1417.449585
2460.122263	0.097247	0.288397	1504.583130
2460.123168	0.097181	0.288397	1592.532349
2460.124053	0.097207	0.288397	1678.560547
2460.124986	0.097288	0.288397	1769.329834
2460.125892	0.097229	0.288397	1857.419312
2460.126789	0.097269	0.288397	1944.669922
2460.127714	0.097269	0.288397	2034.644043
2460.128619	0.097247	0.288397	2122.652832
2460.129529	0.097196	0.288397	2211.101318
2461.124864	1.459167	0.277903	707.696228
2461.125797	0.640151	0.277903	1304.957397
2461.126698	0.097837	0.277903	1393.108398
2461.127588	0.097115	0.277903	1479.541138
2461.128538	0.097299	0.277903	1571.974854
2461.129435	0.097203	0.277903	1659.166260
2461.130320	0.097222	0.277903	1745.207397
2461.131240	0.097222	0.277903	1834.651367
2461.132161	0.097266	0.277903	1924.233032
2461.133061	0.097178	0.277903	2011.692993
2461.133952	0.097192	0.277903	2098.291504
2461.134887	0.097302	0.277903	2189.269043
2462.133193	1.397007	0.287338	610.492004
2462.134085	0.790305	0.287338	1315.444214
2462.135059	0.097925	0.287338	1410.822998
2462.135962	0.097148	0.287338	1498.548096
2462.136855	0.097240	0.287338	1585.383423
2462.137764	0.097189	0.287338	1673.728027
2462.138695	0.097236	0.287338	1764.255005
2462.139592	0.097200	0.287338	1851.443115
2462.140479	0.097255	0.287338	1937.708008
2462.141415	0.097236	0.287338	2028.721191
2462.142334	0.097255	0.287338	2118.098145
2462.143231	0.097284	0.287338	2205.361816
2463.138275	1.432042	0.275382	647.283081
2463.139189	0.731129	0.275382	1315.535156
2463.140117	0.097998	0.275382	1406.477295
2463.141003	0.097115	0.275382	1492.521606
2463.141946	0.097251	0.275382	1584.229248
2463.142838	0.097244	0.275382	1670.970581
2463.143730	0.097170	0.275382	1757.646606
2463.144662	0.097200	0.275382	1848.236694
2463.145576	0.097072	0.275382	1936.960083
2463.146477	0.097225	0.275382	2024.560059
2463.147367	0.097240	0.275382	2111.103760
2463.148316	0.097317	0.275382	2203.457520
2464.146131	1.414274	0.286878	630.766052
2464.147035	0.754907	0.286878	1313.202148
2464.147926	0.098624	0.286878	1401.076416
2464.148902	0.097108	0.286878	1495.854004
2464.149801	0.097119	0.286878	1583.164062
2464.150688	0.097284	0.286878	1669.454956
2464.151623	0.097148	0.286878	1760.288696
2464.152537	0.097148	0.286878	1849.082397
2464.153458	0.097192	0.286878	1938.596558
2464.154349	0.097178	0.286878	2025.181885
2464.155297	0.097244	0.286878	2117.368896
2464.156192	0.097141	0.286878	2204.310303
2465.152470	1.407642	0.279462	626.400513
2465.153364	0.774111	0.279462	1318.456055
2465.154305	0.098049	0.279462	1410.720459
2465.155222	0.097134	0.279462	1499.792114
2465.156120	0.097119	0.279462	1587.005127
2465.157027	0.097178	0.279462	1675.145386
2465.157963	0.097255	0.279462	1766.175781
2465.158866	0.097101	0.279462	1853.857788
2465.159758	0.097229	0.279462	1940.586060
2465.160705	0.097214	0.279462	2032.648071
2465.161614	0.097192	0.279462	2120.995850
2465.162507	0.097203	0.279462	2207.798340
2466.158812	1.419540	0.284030	647.310181
2466.159709	0.749641	0.284030	1319.738281
2466.160644	0.098372	0.284030	1411.715698
2466.161552	0.097200	0.284030	1499.973022
2466.162455	0.097200	0.284030	1587.744385
2466.163343	0.097207	0.284030	1674.064209
2466.164299	0.097225	0.284030	1767.011597
2466.165200	0.097189	0.284030	1854.578613
2466.166094	0.097244	0.284030	1941.514404
2466.167019	0.097313	0.284030	2031.529175
2466.167919	0.097247	0.284030	2119.051758
2466.168822	0.097152	0.284030	2206.780029
2467.166157	1.408813	0.272872	622.695557
2467.167126	0.695288	0.272872	1296.429687
2467.168027	0.097786	0.272872	1384.534546
2467.168928	0.097152	0.272872	1472.068604
2467.169821	0.097178	0.272872	1558.848267
2467.170760	0.097258	0.272872	1650.173828
2467.171666	0.097167	0.272872	1738.206909
2467.172568	0.097181	0.272872	1825.864502
2467.173462	0.097284	0.272872	1912.836304
2467.174403	0.097269	0.272872	2004.366699
2467.175310	0.097134	0.272872	2092.467041
2467.176203	0.097233	0.272872	2179.295898
2468.170730	1.445420	0.279543	663.447754
2468.171659	0.691421	0.279543	1305.777710
2468.172550	0.098101	0.279543	1393.185303
2468.173474	0.097236	0.279543	1483.031616
2468.174383	0.097313	0.279543	1571.489380
2468.175287	0.097207	0.279543	1659.364502
2468.176182	0.097167	0.279543	1746.328735
2468.177115	0.097299	0.279543	1837.108276
2468.178026	0.097222	0.279543	1925.677246
2468.178923	0.097211	0.279543	2012.875244
2468.179807	0.097185	0.279543	2098.786865
2468.180749	0.097273	0.279543	2190.417969
2469.181136	1.414054	0.274608	626.425964
2469.182048	0.755087	0.274608	1315.064941
2469.182933	0.098511	0.274608	1402.246948
2469.183898	0.097031	0.274608	1495.882080
2469.184806	0.097108	0.274608	1584.056274
2469.185698	0.097134	0.274608	1670.699585
2469.186602	0.097068	0.274608	1758.448975
2469.187536	0.097159	0.274608	1849.195923
2469.188446	0.097072	0.274608	1937.531006
2469.189340	0.097075	0.274608	2024.316284
2469.190268	0.097086	0.274608	2114.412354
2469.191173	0.097174	0.274608	2202.354980
2470.182857	1.400248	0.280353	613.308533
2470.183812	0.672667	0.280353	1255.705811
2470.184727	0.097811	0.280353	1345.203125
2470.185625	0.097053	0.280353	1432.356934
2470.186543	0.097185	0.280353	1521.572754
2470.187464	0.097218	0.280353	1611.110596
2470.188370	0.097090	0.280353	1699.073975
2470.189264	0.097134	0.280353	1785.911621
2470.190211	0.097196	0.280353	1877.956299
2470.191113	0.097101	0.280353	1965.541260
2470.192014	0.097181	0.280353	2053.101807
2470.192901	0.097134	0.280353	2139.259521
2471.195846	1.389730	0.276526	600.363464
2471.196801	0.730016	0.276526	1297.528564
2471.197711	0.098038	0.276526	1386.743408
2471.198619	0.097002	0.276526	1474.821167
2471.199509	0.097035	0.276526	1561.182251
2471.200457	0.097203	0.276526	1653.331055
2471.201365	0.097072	0.276526	1741.472046
2471.202258	0.097079	0.276526	1828.163452
2471.203182	0.097090	0.276526	1917.874512
2471.204096	0.097097	0.276526	2006.621338
2471.205005	0.097086	0.276526	2094.872559
2471.205906	0.097115	0.276526	2182.373535
2472.194527	1.424850	0.282931	646.881775
2472.195430	0.744602	0.282931	1319.257324
2472.196315	0.098485	0.282931	1406.416626
2472.197263	0.096998	0.282931	1498.370972
2472.198182	0.097002	0.282931	1587.515747
2472.199078	0.097039	0.282931	1674.462280
2472.199966	0.097061	0.282931	1760.652100
2472.200910	0.097108	0.282931	1852.322144
2472.201815	0.097042	0.282931	1940.145386
2472.202707	0.097046	0.282931	2026.710327
2472.203648	0.097083	0.282931	2118.064941
2472.204558	0.097094	0.282931	2206.419922
2473.210917	1.512993	0.272473	791.295410
2473.211825	0.592764	0.272473	1329.524902
2473.212742	0.097350	0.272473	1418.794678
2473.213637	0.097024	0.272473	1505.631104
2473.214591	0.096984	0.272473	1598.153442
2473.215491	0.097039	0.272473	1685.488159
2473.216381	0.097083	0.272473	1771.891602
2473.217315	0.097050	0.272473	1862.535889
2473.218218	0.097013	0.272473	1950.138550
2473.219135	0.097079	0.272473	2039.159912
2473.220022	0.097061	0.272473	2125.252686
2473.220976	0.097061	0.272473	2217.848389
2474.205155	1.433778	0.280953	646.633911
2474.206061	0.744423	0.280953	1321.080811
2474.206946	0.098423	0.280953	1408.185059
2474.207896	0.096965	0.280953	1500.302124
2474.208807	0.097009	0.280953	1588.677612
2474.209701	0.097083	0.280953	1675.469360
2474.210627	0.097090	0.280953	1765.374512
2474.211527	0.097028	0.280953	1852.699341
2474.212449	0.097024	0.280953	1942.155396
2474.213337	0.097046	0.280953	2028.332153
2474.214292	0.097046	0.280953	2121.010986
2474.215192	0.097046	0.280953	2208.352295
2475.225307	1.401680	0.272638	630.755859
2475.226200	0.767051	0.272638	1315.732178
2475.227090	0.098646	0.272638	1403.527344
2475.228045	0.096907	0.272638	1496.073242
2475.228961	0.096995	0.272638	1584.920288
2475.229859	0.097101	0.272638	1672.116821
2475.230818	0.097079	0.272638	1765.215454
2475.231719	0.097072	0.272638	1852.676880
2475.232639	0.097064	0.272638	1941.975952
2475.233525	0.097090	0.272638	2027.997559
2475.234483	0.097035	0.272638	2120.957031
2475.235374	0.097075	0.272638	2207.450928
2476.216322	1.478009	0.289964	727.180420
2476.217249	0.621273	0.289964	1303.100708
2476.218148	0.097533	0.289964	1390.782837
2476.219036	0.096995	0.289964	1476.914062
2476.219987	0.097115	0.289964	1569.270874
2476.220891	0.096998	0.289964	1656.957275
2476.221781	0.097035	0.289964	1743.318359
2476.222702	0.097083	0.289964	1832.731323
2476.223613	0.097097	0.289964	1921.186890
2476.224512	0.097053	0.289964	2008.437744
2476.225410	0.097020	0.289964	2095.562012
2476.226338	0.097057	0.289964	2185.630859
2477.240565	1.418789	0.270636	682.437500
2477.241490	0.641019	0.270636	1275.380371
2477.242416	0.097449	0.270636	1365.617920
2477.243301	0.097090	0.270636	1451.542480
2477.244263	0.097057	0.270636	1544.911255
2477.245159	0.097094	0.270636	1631.906982
2477.246047	0.097159	0.270636	1718.184570
2477.246984	0.097137	0.270636	1809.202393
2477.247880	0.097108	0.270636	1896.211304
2477.248806	0.097104	0.270636	1986.130127
2477.249699	0.097108	0.270636	2072.847656
2477.250626	0.097130	0.270636	2162.887207
2478.227158	1.416526	0.294440	634.603577
2478.228057	0.761309	0.294440	1319.020020
2478.228944	0.098577	0.294440	1406.457520
2478.229899	0.097090	0.294440	1499.178345
2478.230813	0.097064	0.294440	1587.895020
2478.231715	0.097042	0.294440	1675.427124
2478.232627	0.097112	0.294440	1763.993042
2478.233514	0.097068	0.294440	1850.092285
2478.234473	0.097086	0.294440	1943.197876
2478.235391	0.097094	0.294440	2032.329712
2478.236281	0.097090	0.294440	2118.739746
2478.237216	0.097053	0.294440	2209.484619
2479.254234	1.422700	0.268340	638.792419
2479.255146	0.735674	0.268340	1309.727051
2479.256034	0.098309	0.268340	1397.025757
2479.256955	0.097009	0.268340	1486.371338
2479.257899	0.097053	0.268340	1577.989624
2479.258824	0.097079	0.268340	1667.787598
2479.259714	0.097068	0.268340	1754.177979
2479.260666	0.097057	0.268340	1846.576172
2479.261561	0.097072	0.268340	1933.455200
2479.262449	0.097145	0.268340	2019.719727
2479.263378	0.097178	0.268340	2109.997803
2479.264283	0.097094	0.268340	2197.867432
2480.239581	1.423542	0.299084	632.052856
2480.240506	0.730895	0.299084	1308.130493
2480.241402	0.098218	0.299084	1396.133667
2480.242342	0.097115	0.299084	1487.422241
2480.243254	0.097200	0.299084	1576.068359
2480.244152	0.097086	0.299084	1663.251709
2480.245046	0.097145	0.299084	1750.099121
2480.246021	0.097207	0.299084	1844.875977
2480.246922	0.097156	0.299084	1932.413330
2480.247822	0.097185	0.299084	2019.879883
2480.248734	0.097104	0.299084	2108.439209
2480.249631	0.097185	0.299084	2195.614258
2481.268937	1.393187	0.268477	603.250122
2481.269881	0.730426	0.268477	1292.772217
2481.270790	0.097954	0.268477	1381.812500
2481.271710	0.097068	0.268477	1471.114990
2481.272601	0.097072	0.268477	1557.605713
2481.273558	0.097145	0.268477	1650.573242
2481.274467	0.097134	0.268477	1738.867798
2481.275385	0.097101	0.268477	1828.006348
2481.276288	0.097185	0.268477	1915.764404
2481.277231	0.097145	0.268477	2007.371948
2481.278128	0.097083	0.268477	2094.455078
2481.279020	0.097112	0.268477	2181.078857
2482.251724	1.399958	0.302794	614.581787
2482.252615	0.784369	0.302794	1313.454468
2482.253580	0.098002	0.302794	1408.026123
2482.254476	0.097097	0.302794	1495.025146
2482.255363	0.097152	0.302794	1581.199097
2482.256291	0.097145	0.302794	1671.349487
2482.257207	0.097134	0.302794	1760.323975
2482.258115	0.097083	0.302794	1848.474854
2482.259000	0.097112	0.302794	1934.418823
2482.259928	0.097159	0.302794	2024.582764
2482.260845	0.097101	0.302794	2113.624268
2482.261765	0.097156	0.302794	2203.007568
2483.282120	1.407997	0.266048	616.702637
2483.283099	0.633889	0.266048	1237.280029
2483.284001	0.097701	0.266048	1325.406738
2483.284889	0.097152	0.266048	1411.677856
2483.285836	0.097222	0.266048	1503.746826
2483.286730	0.097196	0.266048	1590.640137
2483.287634	0.097148	0.266048	1678.462280
2483.288528	0.097075	0.266048	1765.247559
2483.289470	0.097163	0.266048	1856.775146
2483.290377	0.097075	0.266048	1944.822388
2483.291277	0.097108	0.266048	2032.219727
2483.292165	0.097137	0.266048	2118.477783
2484.265165	1.405972	0.297106	620.033508
2484.266138	0.642001	0.297106	1244.700195
2484.267056	0.097705	0.297106	1334.393433
2484.267956	0.097097	0.297106	1421.780884
2484.268844	0.097167	0.297106	1508.064941
2484.269775	0.097148	0.297106	1598.510132
2484.270679	0.097126	0.297106	1686.312500
2484.271571	0.097141	0.297106	1772.962402
2484.272497	0.097203	0.297106	1862.972656
2484.273408	0.097145	0.297106	1951.471558
2484.274310	0.097196	0.297106	2039.142334
2484.275202	0.097101	0.297106	2125.756348
2485.294549	1.404192	0.271051	624.865356
2485.295510	0.664849	0.271051	1263.784912
2485.296412	0.097906	0.271051	1352.096558
2485.297311	0.097123	0.271051	1439.409912
2485.298197	0.097130	0.271051	1525.467163
2485.299136	0.097185	0.271051	1616.723877
2485.300048	0.097123	0.271051	1705.299927
2485.300945	0.097141	0.271051	1792.435547
2485.301876	0.097181	0.271051	1882.911377
2485.302787	0.097167	0.271051	1971.430298
2485.303686	0.097042	0.271051	2058.671387
2485.304575	0.097134	0.271051	2145.023437
2486.279644	1.426157	0.300265	640.344604
2486.280555	0.733817	0.300265	1308.852051
2486.281446	0.098390	0.300265	1396.517456
2486.282399	0.097189	0.300265	1489.138306
2486.283298	0.097086	0.300265	1576.418823
2486.284199	0.097163	0.300265	1663.962769
2486.285094	0.097141	0.300265	1750.904053
2486.286034	0.097141	0.300265	1842.216675
2486.286930	0.097108	0.300265	1929.225586
2486.287817	0.097123	0.300265	2015.373535
2486.288743	0.097181	0.300265	2105.363525
2486.289654	0.097137	0.300265	2193.855713
2487.306970	1.408088	0.268469	633.639771
2487.307875	0.759723	0.268469	1321.188965
2487.308816	0.098628	0.268469	1413.997803
2487.309713	0.097086	0.268469	1501.084106
2487.310616	0.097126	0.268469	1588.789307
2487.311505	0.097108	0.268469	1675.118408
2487.312449	0.097094	0.268469	1766.774658
2487.313375	0.097108	0.268469	1856.696777
2487.314278	0.097108	0.268469	1944.385498
2487.315165	0.097189	0.268469	2030.591919
2487.316113	0.097211	0.268469	2122.747559
2487.317014	0.097130	0.268469	2210.261719
2488.294099	1.404181	0.298089	619.243774
2488.294991	0.774921	0.298089	1310.472900
2488.295937	0.098199	0.298089	1403.369629
2488.296830	0.097072	0.298089	1490.054565
2488.297723	0.097148	0.298089	1576.808105
2488.298660	0.097170	0.298089	1667.856812
2488.299573	0.097130	0.298089	1756.536621
2488.300476	0.097126	0.298089	1844.241821
2488.301365	0.097137	0.298089	1930.597046
2488.302312	0.097211	0.298089	2022.655518
2488.303223	0.097126	0.298089	2111.137695
2488.304120	0.097218	0.298089	2198.342285
2489.318604	1.411714	0.268642	622.565857
2489.319587	0.630048	0.268642	1241.902588
2489.320485	0.097749	0.268642	1329.681152
2489.321374	0.097108	0.268642	1416.010254
2489.322316	0.097167	0.268642	1507.541382
2489.323215	0.097031	0.268642	1594.772461
2489.324145	0.097094	0.268642	1685.069458
2489.325032	0.097086	0.268642	1771.184937
2489.325962	0.097178	0.268642	1861.560181
2489.326869	0.097097	0.268642	1949.627319
2489.327792	0.097108	0.268642	2039.258179
2489.328679	0.097101	0.268642	2125.386719
2490.307785	1.416855	0.298980	624.833252
2490.308763	0.630773	0.298980	1241.729004
2490.309672	0.097668	0.298980	1330.509644
2490.310565	0.097141	0.298980	1417.256592
2490.311498	0.097167	0.298980	1507.913208
2490.312397	0.097115	0.298980	1595.219971
2490.313294	0.097108	0.298980	1682.325928
2490.314186	0.097152	0.298980	1768.985596
2490.315128	0.097185	0.298980	1860.533936
2490.316043	0.097159	0.298980	1949.434814
2490.316944	0.097200	0.298980	2037.011719
2490.317856	0.097200	0.298980	2125.657959
2491.330246	1.396813	0.270721	607.613586
2491.331208	0.743397	0.270721	1322.761719
2491.332120	0.097749	0.270721	1411.908813
2491.333015	0.097039	0.270721	1498.758301
2491.333900	0.097101	0.270721	1584.692505
2491.334837	0.097233	0.270721	1675.799561
2491.335750	0.097104	0.270721	1764.455933
2491.336653	0.097137	0.270721	1852.171021
2491.337538	0.097130	0.270721	1938.131226
2491.338494	0.097273	0.270721	2031.124146
2491.339406	0.097075	0.270721	2119.656738
2491.340306	0.097101	0.270721	2207.047363
2492.322270	1.431002	0.296043	646.812988
2492.323173	0.742006	0.296043	1316.843994
2492.324060	0.098496	0.296043	1404.210083
2492.325029	0.097145	0.296043	1498.343384
2492.325929	0.097097	0.296043	1585.730835
2492.326830	0.097101	0.296043	1673.218628
2492.327762	0.097181	0.296043	1763.791748
2492.328667	0.097159	0.296043	1851.721069
2492.329575	0.097115	0.296043	1939.901978
2492.330472	0.097141	0.296043	2027.037598
2492.331413	0.097152	0.296043	2118.457764
2492.332314	0.097072	0.296043	2205.919189
2493.342678	1.416738	0.270036	638.948975
2493.343578	0.763414	0.270036	1326.021729
2493.344521	0.098478	0.270036	1418.886230
2493.345422	0.097108	0.270036	1506.380615
2493.346315	0.097134	0.270036	1593.121094
2493.347208	0.097126	0.270036	1679.854980
2493.348143	0.097214	0.270036	1770.750366
2493.349051	0.097137	0.270036	1858.951172
2493.349954	0.097152	0.270036	1946.679565
2493.350867	0.097075	0.270036	2035.309204
2493.351795	0.097163	0.270036	2125.476562
2493.352702	0.097134	0.270036	2213.576904
2494.335959	1.419518	0.299016	638.783020
2494.336857	0.760426	0.299016	1321.645630
2494.337806	0.098478	0.299016	1415.101074
2494.338703	0.097112	0.299016	1502.210327
2494.339597	0.097123	0.299016	1589.038086
2494.340485	0.097189	0.299016	1675.341675
2494.341422	0.097152	0.299016	1766.373169
2494.342330	0.097130	0.299016	1854.567383
2494.343230	0.097134	0.299016	1941.987793
2494.344156	0.097141	0.299016	2031.940430
2494.345078	0.097203	0.299016	2121.562012
2494.345982	0.097090	0.299016	2209.331299
2495.354361	1.464968	0.272413	710.509644
2495.355281	0.654521	0.272413	1312.669434
2495.356177	0.097844	0.272413	1400.337891
2495.357065	0.097094	0.272413	1486.556885
2495.358011	0.097196	0.272413	1578.504395
2495.358908	0.097203	0.272413	1665.695801
2495.359806	0.097156	0.272413	1752.941650
2495.360735	0.097112	0.272413	1843.158569
2495.361653	0.097222	0.272413	1932.408081
2495.362561	0.097152	0.272413	2020.622192
2495.363461	0.097137	0.272413	2108.045898
2495.364396	0.097218	0.272413	2198.944824
2496.349638	1.397831	0.298166	606.658569
2496.350535	0.776400	0.298166	1303.089478
2496.351491	0.098090	0.298166	1396.863159
2496.352395	0.097101	0.298166	1484.642334
2496.353287	0.097189	0.298166	1571.334717
2496.354225	0.097126	0.298166	1662.439331
2496.355127	0.097174	0.298166	1750.090332
2496.356029	0.097167	0.298166	1837.734741
2496.356925	0.097163	0.298166	1924.792847
2496.357862	0.097185	0.298166	2015.855225
2496.358768	0.097178	0.298166	2103.898193
2496.359659	0.097170	0.298166	2190.477051
2497.367297	1.438370	0.276864	711.993347
2497.368225	0.610737	0.276864	1278.757568
2497.369126	0.097625	0.276864	1366.717285
2497.370018	0.097046	0.276864	1453.282227
2497.370973	0.097262	0.276864	1546.167358
2497.371870	0.097214	0.276864	1633.368652
2497.372770	0.097185	0.276864	1720.835205
2497.373659	0.097222	0.276864	1807.265259
2497.374599	0.097244	0.276864	1898.674316
2497.375503	0.097148	0.276864	1986.496460
2497.376399	0.097141	0.276864	2073.534912
2497.377329	0.097203	0.276864	2163.934082
2498.363091	1.404294	0.303036	615.080933
2498.364027	0.723406	0.303036	1292.188721
2498.364931	0.098163	0.303036	1380.927979
2498.365832	0.097115	0.303036	1468.429077
2498.366717	0.097126	0.303036	1554.385986
2498.367652	0.097178	0.303036	1645.247192
2498.368566	0.097123	0.303036	1734.017456
2498.369464	0.097189	0.303036	1821.292969
2498.370379	0.097134	0.303036	1910.170410
2498.371305	0.097196	0.303036	2000.173950
2498.372215	0.097148	0.303036	2088.579102
2498.373114	0.097156	0.303036	2175.922119
2499.380165	1.405734	0.281750	611.494080
2499.381148	0.645850	0.281750	1246.364258
2499.382063	0.097701	0.281750	1335.761108
2499.382951	0.097090	0.281750	1421.976929
2499.383884	0.097126	0.281750	1512.595947
2499.384793	0.097152	0.281750	1600.907227
2499.385696	0.097123	0.281750	1688.609131
2499.386586	0.097075	0.281750	1775.006104
2499.387538	0.097148	0.281750	1867.491455
2499.388436	0.097148	0.281750	1954.730713
2499.389336	0.097090	0.281750	2042.111572
2499.390230	0.097141	0.281750	2128.955811
2500.375499	1.396080	0.298226	612.879272
2500.376393	0.796047	0.298226	1324.545654
2500.377361	0.097965	0.298226	1419.375854
2500.378259	0.097145	0.298226	1506.611816
2500.379156	0.097101	0.298226	1593.711304
2500.380042	0.097141	0.298226	1679.778320
2500.380998	0.097178	0.298226	1772.680176
2500.381906	0.097108	0.298226	1860.854370
2500.382802	0.097152	0.298226	1947.902588
2500.383731	0.097174	0.298226	2038.177246
2500.384636	0.097225	0.298226	2126.166260
2500.385537	0.097094	0.298226	2213.647461
2501.393670	1.447350	0.278645	725.122314
2501.394596	0.617391	0.278645	1296.826660
2501.395487	0.097603	0.278645	1383.790527
2501.396374	0.097057	0.278645	1469.880005
2501.397308	0.097211	0.278645	1560.674805
2501.398214	0.097170	0.278645	1648.711182
2501.399118	0.097152	0.278645	1736.536621
2501.400013	0.097167	0.278645	1823.500854
2501.400962	0.097156	0.278645	1915.701660
2501.401879	0.097130	0.278645	2004.770020
2501.402772	0.097218	0.278645	2091.585693
2501.403720	0.097090	0.278645	2183.626953
2502.388193	1.432511	0.299850	653.224976
2502.389097	0.738230	0.299850	1320.584961
2502.390016	0.098423	0.299850	1411.035522
2502.390934	0.097108	0.299850	1500.180786
2502.391845	0.097115	0.299850	1588.652954
2502.392736	0.097097	0.299850	1675.166504
2502.393666	0.097101	0.299850	1765.470215
2502.394567	0.097134	0.299850	1852.987793
2502.395470	0.097148	0.299850	1940.712891
2502.396360	0.097086	0.299850	2027.119629
2502.397308	0.097141	0.299850	2119.209473
2502.398214	0.097156	0.299850	2207.232666
2503.406845	1.454114	0.280272	713.969849
2503.407780	0.609591	0.280272	1283.937500
2503.408687	0.097544	0.280272	1372.409912
2503.409573	0.097097	0.280272	1458.437988
2503.410523	0.097207	0.280272	1550.784668
2503.411425	0.097163	0.280272	1638.425781
2503.412321	0.097115	0.280272	1725.441284
2503.413238	0.097042	0.280272	1814.428955
2503.414152	0.097211	0.280272	1903.279541
2503.415059	0.097083	0.280272	1991.333374
2503.415957	0.097123	0.280272	2078.549561
2503.416898	0.097178	0.280272	2169.993896
2504.400851	1.413768	0.303056	629.126892
2504.401758	0.761169	0.303056	1319.507568
2504.402646	0.098536	0.303056	1407.007812
2504.403608	0.097090	0.303056	1500.408203
2504.404507	0.097104	0.303056	1587.705200
2504.405403	0.097097	0.303056	1674.704224
2504.406288	0.097094	0.303056	1760.631958
2504.407226	0.097083	0.303056	1851.695312
2504.408133	0.097075	0.303056	1939.742554
2504.409027	0.097072	0.303056	2026.524536
2504.409946	0.097178	0.303056	2115.830811
2504.410856	0.097108	0.303056	2204.199219
2505.421272	1.418613	0.274169	639.794617
2505.422173	0.754691	0.274169	1319.771240
2505.423100	0.098643	0.274169	1411.212891
2505.424012	0.097236	0.274169	1499.892456
2505.424916	0.097159	0.274169	1587.724609
2505.425808	0.097192	0.274169	1674.420166
2505.426743	0.097236	0.274169	1765.336182
2505.427649	0.097214	0.274169	1853.412354
2505.428548	0.097159	0.274169	1940.758667
2505.429442	0.097123	0.274169	2027.586426
2505.430403	0.097211	0.274169	2121.005859
2505.431311	0.097097	0.274169	2209.170166
2506.411980	1.396996	0.302524	611.884216
2506.412900	0.762609	0.302524	1313.484131
2506.413850	0.097797	0.302524	1406.390869
2506.414768	0.097108	0.302524	1495.536133
2506.415669	0.097115	0.302524	1583.037231
2506.416595	0.097137	0.302524	1672.986572
2506.417504	0.097145	0.302524	1761.291138
2506.418410	0.097130	0.302524	1849.291016
2506.419300	0.097079	0.302524	1935.691162
2506.420248	0.097189	0.302524	2027.826050
2506.421150	0.097064	0.302524	2115.377930
2506.422042	0.097097	0.302524	2201.988525
2507.436236	1.405873	0.270785	618.583984
2507.437129	0.785581	0.270785	1320.107910
2507.438094	0.097771	0.270785	1414.456909
2507.439021	0.097053	0.270785	1504.425293
2507.439916	0.097119	0.270785	1591.346924
2507.440870	0.097090	0.270785	1683.970581
2507.441776	0.097163	0.270785	1772.000366
2507.442695	0.097097	0.270785	1861.232666
2507.443580	0.097123	0.270785	1947.186401
2507.444527	0.097170	0.270785	2039.206787
2507.445421	0.097137	0.270785	2126.047607
2507.446307	0.097189	0.270785	2212.156738
2508.423117	1.394268	0.304168	606.506470
2508.424021	0.774104	0.304168	1306.296509
2508.424985	0.097819	0.304168	1400.593628
2508.425917	0.097097	0.304168	1491.088135
2508.426806	0.097181	0.304168	1577.482422
2508.427760	0.097134	0.304168	1670.148071
2508.428652	0.097170	0.304168	1756.824097
2508.429538	0.097115	0.304168	1842.868408
2508.430460	0.097148	0.304168	1932.439209
2508.431370	0.097061	0.304168	2020.764282
2508.432284	0.097115	0.304168	2109.527832
2508.433181	0.097214	0.304168	2196.729004
2509.449927	1.402822	0.272977	614.436157
2509.450909	0.651149	0.272977	1253.864136
2509.451800	0.097628	0.272977	1340.850830
2509.452690	0.097137	0.272977	1427.303223
2509.453627	0.097174	0.272977	1518.355347
2509.454533	0.097097	0.272977	1606.325439
2509.455449	0.097119	0.272977	1695.286621
2509.456347	0.097083	0.272977	1782.466675
2509.457284	0.097090	0.272977	1873.439819
2509.458188	0.097097	0.272977	1961.215698
2509.459079	0.097090	0.272977	2047.722778
2509.460018	0.097108	0.272977	2138.907227
2510.434773	1.412856	0.299632	630.133972
2510.435676	0.756097	0.299632	1312.889893
2510.436613	0.098467	0.299632	1405.153320
2510.437523	0.096962	0.299632	1493.388428
2510.438422	0.096987	0.299632	1580.579956
2510.439307	0.097050	0.299632	1666.468872
2510.440256	0.097163	0.299632	1758.676636
2510.441150	0.097050	0.299632	1845.438965
2510.442033	0.097028	0.299632	1931.114380
2510.442943	0.097024	0.299632	2019.406128
2510.443872	0.097079	0.299632	2109.592285
2510.444778	0.097031	0.299632	2197.502686
2511.464391	1.394619	0.270117	608.053955
2511.465284	0.794271	0.270117	1317.338135
2511.466222	0.098123	0.270117	1409.377075
2511.467140	0.097028	0.270117	1498.448364
2511.468046	0.097057	0.270117	1586.381958
2511.468931	0.097031	0.270117	1672.254639
2511.469888	0.097094	0.270117	1765.173096
2511.470799	0.096987	0.270117	1853.528564
2511.471689	0.097009	0.270117	1939.866821
2511.472628	0.097064	0.270117	2031.010132
2511.473540	0.097104	0.270117	2119.569336
2511.474434	0.097050	0.270117	2206.331543
2512.447458	1.438542	0.299185	655.975403
2512.448369	0.716942	0.299185	1309.109619
2512.449263	0.098167	0.299185	1396.870483
2512.450240	0.097009	0.299185	1491.648560
2512.451148	0.096991	0.299185	1579.716309
2512.452038	0.097083	0.299185	1666.119751
2512.452968	0.097064	0.299185	1756.389404
2512.453876	0.097035	0.299185	1844.497070
2512.454771	0.097050	0.299185	1931.356445
2512.455659	0.097013	0.299185	2017.503906
2512.456589	0.097156	0.299185	2107.858643
2512.457503	0.097086	0.299185	2196.595459
